75ECSV 	
// AQ6375E OPTICAL SPECTRUM ANALYZER //
40
"CTRWL",1750.000000
"SPAN",1500.000000
"START WL",1000.000000
"STOP WL",2500.000000
"WLFREQ", 0
"REFL",-17.1
"LSCL",10.0
"RESLN",1.000
"CUSTOM RES",0
"AVG",   5
"SMPLAUTO",      0
"SMPL",       7501
"SMPLINTVL",0.2000
"MID"
"SENS LEVEL",-71.0
"MEAS"
"LSUNT",1
"NMSKH","OFF"
"RESCOR",0
"SMOOTH",0
"MEASWL",1
"MODELNAME",AQ6375E
"NEBWCAL0",    0
"NEBWCAL1",    0
"NEBWCALWL",   0
"RESCAL0_0",   9945
"RESCAL0_1",      0
"RESCAL0_2",      0
"RESCAL1_0",   9945
"RESCAL1_1",      0
"RESCAL1_2",      0









"[TRACE DATA]"
1000.0000, -54.333
1000.2000, -54.004
1000.4000, -54.341
1000.6000, -54.126
1000.8000, -53.880
1001.0000, -54.155
1001.2000, -54.257
1001.4000, -54.161
1001.6000, -54.264
1001.8000, -54.227
1002.0000, -53.927
1002.2000, -54.295
1002.4000, -54.350
1002.6000, -54.108
1002.8000, -53.989
1003.0000, -54.142
1003.2000, -54.299
1003.4000, -54.292
1003.6000, -54.056
1003.8000, -54.462
1004.0000, -54.182
1004.2000, -54.488
1004.4000, -54.421
1004.6000, -54.188
1004.8000, -54.305
1005.0000, -54.278
1005.2000, -54.333
1005.4000, -54.355
1005.6000, -54.392
1005.8000, -54.225
1006.0000, -54.426
1006.2000, -54.197
1006.4000, -54.247
1006.6000, -54.171
1006.8000, -54.077
1007.0000, -54.349
1007.2000, -53.988
1007.4000, -54.212
1007.6000, -54.035
1007.8000, -54.107
1008.0000, -54.265
1008.2000, -54.304
1008.4000, -54.423
1008.6000, -54.367
1008.8000, -54.429
1009.0000, -54.490
1009.2000, -54.531
1009.4000, -54.598
1009.6000, -54.535
1009.8000, -54.263
1010.0000, -54.247
1010.2000, -54.479
1010.4000, -54.325
1010.6000, -54.449
1010.8000, -54.445
1011.0000, -54.626
1011.2000, -54.488
1011.4000, -54.499
1011.6000, -54.347
1011.8000, -54.391
1012.0000, -54.521
1012.2000, -54.396
1012.4000, -54.572
1012.6000, -54.331
1012.8000, -54.469
1013.0000, -54.375
1013.2000, -54.590
1013.4000, -54.492
1013.6000, -54.775
1013.8000, -54.665
1014.0000, -54.807
1014.2000, -54.550
1014.4000, -54.537
1014.6000, -54.529
1014.8000, -54.533
1015.0000, -54.644
1015.2000, -54.541
1015.4000, -54.559
1015.6000, -54.720
1015.8000, -54.713
1016.0000, -54.733
1016.2000, -54.495
1016.4000, -54.429
1016.6000, -54.420
1016.8000, -54.464
1017.0000, -54.376
1017.2000, -54.566
1017.4000, -54.314
1017.6000, -54.734
1017.8000, -54.615
1018.0000, -54.573
1018.2000, -54.631
1018.4000, -54.505
1018.6000, -54.433
1018.8000, -54.515
1019.0000, -54.560
1019.2000, -54.528
1019.4000, -54.487
1019.6000, -54.643
1019.8000, -54.622
1020.0000, -54.476
1020.2000, -54.574
1020.4000, -54.723
1020.6000, -54.553
1020.8000, -54.587
1021.0000, -54.654
1021.2000, -54.583
1021.4000, -54.546
1021.6000, -54.692
1021.8000, -54.570
1022.0000, -54.855
1022.2000, -54.973
1022.4000, -54.764
1022.6000, -54.836
1022.8000, -54.726
1023.0000, -54.747
1023.2000, -54.955
1023.4000, -54.580
1023.6000, -54.865
1023.8000, -54.543
1024.0000, -55.012
1024.2000, -54.737
1024.4000, -54.561
1024.6000, -54.880
1024.8000, -54.848
1025.0000, -54.707
1025.2000, -54.858
1025.4000, -54.777
1025.6000, -54.755
1025.8000, -54.997
1026.0000, -54.853
1026.2000, -54.756
1026.4000, -54.802
1026.6000, -54.778
1026.8000, -54.611
1027.0000, -54.860
1027.2000, -54.724
1027.4000, -54.788
1027.6000, -54.828
1027.8000, -54.848
1028.0000, -54.668
1028.2000, -55.040
1028.4000, -54.788
1028.6000, -54.927
1028.8000, -54.905
1029.0000, -54.814
1029.2000, -54.882
1029.4000, -54.895
1029.6000, -54.995
1029.8000, -54.814
1030.0000, -54.842
1030.2000, -55.016
1030.4000, -54.924
1030.6000, -54.791
1030.8000, -54.730
1031.0000, -54.724
1031.2000, -54.967
1031.4000, -54.869
1031.6000, -55.004
1031.8000, -55.091
1032.0000, -54.926
1032.2000, -54.770
1032.4000, -55.042
1032.6000, -54.886
1032.8000, -55.120
1033.0000, -54.825
1033.2000, -55.019
1033.4000, -55.008
1033.6000, -54.946
1033.8000, -54.770
1034.0000, -55.227
1034.2000, -54.909
1034.4000, -55.047
1034.6000, -54.907
1034.8000, -55.101
1035.0000, -55.001
1035.2000, -55.130
1035.4000, -55.011
1035.6000, -55.092
1035.8000, -55.051
1036.0000, -55.168
1036.2000, -54.952
1036.4000, -55.190
1036.6000, -55.034
1036.8000, -55.233
1037.0000, -55.163
1037.2000, -55.129
1037.4000, -55.116
1037.6000, -55.335
1037.8000, -55.209
1038.0000, -55.169
1038.2000, -55.019
1038.4000, -55.301
1038.6000, -55.085
1038.8000, -55.221
1039.0000, -55.367
1039.2000, -55.260
1039.4000, -55.217
1039.6000, -55.300
1039.8000, -55.261
1040.0000, -55.074
1040.2000, -55.398
1040.4000, -55.104
1040.6000, -55.433
1040.8000, -55.165
1041.0000, -55.306
1041.2000, -55.317
1041.4000, -55.343
1041.6000, -55.329
1041.8000, -55.386
1042.0000, -55.356
1042.2000, -55.417
1042.4000, -55.360
1042.6000, -55.242
1042.8000, -55.430
1043.0000, -55.513
1043.2000, -55.552
1043.4000, -55.536
1043.6000, -55.522
1043.8000, -55.242
1044.0000, -55.272
1044.2000, -55.290
1044.4000, -55.184
1044.6000, -55.340
1044.8000, -55.501
1045.0000, -55.311
1045.2000, -55.315
1045.4000, -55.471
1045.6000, -55.376
1045.8000, -55.259
1046.0000, -55.360
1046.2000, -55.444
1046.4000, -55.302
1046.6000, -55.179
1046.8000, -55.343
1047.0000, -55.258
1047.2000, -55.494
1047.4000, -55.470
1047.6000, -55.372
1047.8000, -55.290
1048.0000, -55.368
1048.2000, -55.256
1048.4000, -55.576
1048.6000, -55.427
1048.8000, -55.700
1049.0000, -55.586
1049.2000, -55.143
1049.4000, -55.434
1049.6000, -55.477
1049.8000, -55.329
1050.0000, -55.426
1050.2000, -55.410
1050.4000, -55.303
1050.6000, -55.401
1050.8000, -55.436
1051.0000, -55.774
1051.2000, -55.429
1051.4000, -55.331
1051.6000, -55.543
1051.8000, -55.308
1052.0000, -55.215
1052.2000, -55.584
1052.4000, -55.459
1052.6000, -55.483
1052.8000, -55.448
1053.0000, -55.749
1053.2000, -55.645
1053.4000, -55.538
1053.6000, -55.722
1053.8000, -55.562
1054.0000, -55.468
1054.2000, -55.622
1054.4000, -55.462
1054.6000, -55.630
1054.8000, -55.791
1055.0000, -55.395
1055.2000, -55.669
1055.4000, -55.462
1055.6000, -55.513
1055.8000, -55.635
1056.0000, -55.290
1056.2000, -55.576
1056.4000, -55.622
1056.6000, -55.468
1056.8000, -55.520
1057.0000, -55.530
1057.2000, -55.576
1057.4000, -55.573
1057.6000, -55.498
1057.8000, -55.492
1058.0000, -55.514
1058.2000, -55.631
1058.4000, -55.746
1058.6000, -55.672
1058.8000, -55.438
1059.0000, -55.644
1059.2000, -55.628
1059.4000, -55.370
1059.6000, -55.564
1059.8000, -55.740
1060.0000, -55.500
1060.2000, -55.428
1060.4000, -55.570
1060.6000, -55.722
1060.8000, -55.553
1061.0000, -55.461
1061.2000, -55.673
1061.4000, -55.559
1061.6000, -55.458
1061.8000, -55.490
1062.0000, -55.751
1062.2000, -55.511
1062.4000, -55.352
1062.6000, -55.845
1062.8000, -55.523
1063.0000, -55.557
1063.2000, -55.267
1063.4000, -55.608
1063.6000, -55.599
1063.8000, -55.560
1064.0000, -55.630
1064.2000, -55.608
1064.4000, -55.579
1064.6000, -55.531
1064.8000, -55.731
1065.0000, -55.765
1065.2000, -55.700
1065.4000, -55.405
1065.6000, -55.799
1065.8000, -55.672
1066.0000, -55.770
1066.2000, -55.918
1066.4000, -55.482
1066.6000, -55.473
1066.8000, -55.567
1067.0000, -55.694
1067.2000, -55.772
1067.4000, -55.930
1067.6000, -55.581
1067.8000, -55.649
1068.0000, -55.526
1068.2000, -55.561
1068.4000, -55.974
1068.6000, -55.533
1068.8000, -55.816
1069.0000, -55.915
1069.2000, -55.609
1069.4000, -55.851
1069.6000, -55.812
1069.8000, -55.698
1070.0000, -56.024
1070.2000, -55.583
1070.4000, -55.696
1070.6000, -55.756
1070.8000, -55.703
1071.0000, -55.849
1071.2000, -55.899
1071.4000, -55.702
1071.6000, -55.752
1071.8000, -55.629
1072.0000, -55.690
1072.2000, -55.706
1072.4000, -55.564
1072.6000, -55.846
1072.8000, -55.670
1073.0000, -55.796
1073.2000, -55.809
1073.4000, -55.700
1073.6000, -55.879
1073.8000, -55.621
1074.0000, -55.756
1074.2000, -55.859
1074.4000, -55.883
1074.6000, -55.827
1074.8000, -55.732
1075.0000, -55.603
1075.2000, -55.688
1075.4000, -55.755
1075.6000, -55.797
1075.8000, -55.723
1076.0000, -55.901
1076.2000, -55.960
1076.4000, -55.839
1076.6000, -55.741
1076.8000, -55.705
1077.0000, -55.865
1077.2000, -55.882
1077.4000, -55.707
1077.6000, -55.890
1077.8000, -55.819
1078.0000, -55.993
1078.2000, -55.888
1078.4000, -55.809
1078.6000, -55.825
1078.8000, -55.934
1079.0000, -55.766
1079.2000, -55.916
1079.4000, -55.840
1079.6000, -55.854
1079.8000, -55.911
1080.0000, -55.865
1080.2000, -55.960
1080.4000, -55.795
1080.6000, -55.652
1080.8000, -55.956
1081.0000, -55.994
1081.2000, -55.653
1081.4000, -55.926
1081.6000, -55.818
1081.8000, -55.875
1082.0000, -55.969
1082.2000, -55.823
1082.4000, -55.806
1082.6000, -55.903
1082.8000, -55.922
1083.0000, -55.859
1083.2000, -55.965
1083.4000, -56.014
1083.6000, -55.753
1083.8000, -55.914
1084.0000, -55.856
1084.2000, -55.811
1084.4000, -55.749
1084.6000, -56.010
1084.8000, -55.970
1085.0000, -56.150
1085.2000, -55.788
1085.4000, -55.859
1085.6000, -56.061
1085.8000, -55.913
1086.0000, -55.943
1086.2000, -55.798
1086.4000, -55.756
1086.6000, -55.912
1086.8000, -55.963
1087.0000, -56.142
1087.2000, -55.891
1087.4000, -56.084
1087.6000, -55.881
1087.8000, -55.874
1088.0000, -55.959
1088.2000, -56.032
1088.4000, -55.968
1088.6000, -56.004
1088.8000, -55.993
1089.0000, -55.948
1089.2000, -56.066
1089.4000, -56.069
1089.6000, -56.048
1089.8000, -56.177
1090.0000, -56.093
1090.2000, -56.002
1090.4000, -55.997
1090.6000, -55.940
1090.8000, -56.023
1091.0000, -56.079
1091.2000, -56.049
1091.4000, -56.211
1091.6000, -56.146
1091.8000, -55.830
1092.0000, -55.911
1092.2000, -55.853
1092.4000, -56.108
1092.6000, -56.040
1092.8000, -55.980
1093.0000, -56.048
1093.2000, -55.963
1093.4000, -56.192
1093.6000, -55.908
1093.8000, -56.023
1094.0000, -56.024
1094.2000, -56.109
1094.4000, -56.082
1094.6000, -56.226
1094.8000, -56.256
1095.0000, -56.211
1095.2000, -55.821
1095.4000, -55.941
1095.6000, -56.126
1095.8000, -56.044
1096.0000, -56.077
1096.2000, -55.958
1096.4000, -56.161
1096.6000, -56.095
1096.8000, -56.099
1097.0000, -56.073
1097.2000, -56.025
1097.4000, -55.855
1097.6000, -56.276
1097.8000, -55.934
1098.0000, -55.955
1098.2000, -56.068
1098.4000, -56.235
1098.6000, -55.936
1098.8000, -56.215
1099.0000, -56.209
1099.2000, -56.252
1099.4000, -56.237
1099.6000, -56.079
1099.8000, -56.319
1100.0000, -56.220
1100.2000, -56.039
1100.4000, -55.940
1100.6000, -56.066
1100.8000, -56.161
1101.0000, -56.148
1101.2000, -56.052
1101.4000, -56.155
1101.6000, -56.189
1101.8000, -56.089
1102.0000, -56.117
1102.2000, -56.233
1102.4000, -56.175
1102.6000, -56.190
1102.8000, -56.107
1103.0000, -56.426
1103.2000, -56.208
1103.4000, -56.175
1103.6000, -56.018
1103.8000, -56.396
1104.0000, -55.954
1104.2000, -56.156
1104.4000, -56.009
1104.6000, -56.180
1104.8000, -56.121
1105.0000, -56.088
1105.2000, -56.452
1105.4000, -56.201
1105.6000, -56.115
1105.8000, -56.055
1106.0000, -56.282
1106.2000, -56.242
1106.4000, -56.424
1106.6000, -56.264
1106.8000, -56.090
1107.0000, -56.123
1107.2000, -56.134
1107.4000, -56.276
1107.6000, -56.077
1107.8000, -56.131
1108.0000, -56.296
1108.2000, -56.285
1108.4000, -56.182
1108.6000, -56.253
1108.8000, -56.130
1109.0000, -56.336
1109.2000, -56.335
1109.4000, -56.286
1109.6000, -56.222
1109.8000, -56.233
1110.0000, -56.376
1110.2000, -56.343
1110.4000, -56.185
1110.6000, -56.204
1110.8000, -56.299
1111.0000, -56.315
1111.2000, -56.327
1111.4000, -56.100
1111.6000, -56.217
1111.8000, -56.287
1112.0000, -56.453
1112.2000, -56.123
1112.4000, -56.456
1112.6000, -56.506
1112.8000, -56.396
1113.0000, -56.160
1113.2000, -56.413
1113.4000, -56.412
1113.6000, -56.279
1113.8000, -56.319
1114.0000, -56.277
1114.2000, -56.292
1114.4000, -56.434
1114.6000, -56.267
1114.8000, -56.321
1115.0000, -56.325
1115.2000, -56.115
1115.4000, -56.550
1115.6000, -56.466
1115.8000, -56.360
1116.0000, -56.347
1116.2000, -56.415
1116.4000, -56.433
1116.6000, -56.391
1116.8000, -56.200
1117.0000, -56.421
1117.2000, -56.574
1117.4000, -56.456
1117.6000, -56.481
1117.8000, -56.355
1118.0000, -56.546
1118.2000, -56.318
1118.4000, -56.501
1118.6000, -56.368
1118.8000, -56.555
1119.0000, -56.242
1119.2000, -56.500
1119.4000, -56.326
1119.6000, -56.362
1119.8000, -56.699
1120.0000, -56.528
1120.2000, -56.470
1120.4000, -56.298
1120.6000, -56.532
1120.8000, -56.523
1121.0000, -56.496
1121.2000, -56.397
1121.4000, -56.286
1121.6000, -56.601
1121.8000, -56.586
1122.0000, -56.596
1122.2000, -56.626
1122.4000, -56.532
1122.6000, -56.645
1122.8000, -56.470
1123.0000, -56.429
1123.2000, -56.650
1123.4000, -56.488
1123.6000, -56.346
1123.8000, -56.520
1124.0000, -56.509
1124.2000, -56.304
1124.4000, -56.539
1124.6000, -56.661
1124.8000, -56.366
1125.0000, -56.451
1125.2000, -56.644
1125.4000, -56.477
1125.6000, -56.783
1125.8000, -56.567
1126.0000, -56.680
1126.2000, -56.652
1126.4000, -56.533
1126.6000, -56.639
1126.8000, -56.754
1127.0000, -56.567
1127.2000, -56.759
1127.4000, -56.690
1127.6000, -56.705
1127.8000, -56.723
1128.0000, -56.562
1128.2000, -56.913
1128.4000, -57.017
1128.6000, -56.732
1128.8000, -56.848
1129.0000, -56.699
1129.2000, -56.851
1129.4000, -56.754
1129.6000, -56.554
1129.8000, -56.768
1130.0000, -56.905
1130.2000, -56.963
1130.4000, -56.801
1130.6000, -56.941
1130.8000, -56.863
1131.0000, -56.885
1131.2000, -56.730
1131.4000, -56.908
1131.6000, -56.831
1131.8000, -56.854
1132.0000, -57.093
1132.2000, -56.924
1132.4000, -56.791
1132.6000, -57.076
1132.8000, -56.934
1133.0000, -57.023
1133.2000, -57.044
1133.4000, -56.816
1133.6000, -57.083
1133.8000, -57.137
1134.0000, -56.973
1134.2000, -57.152
1134.4000, -57.163
1134.6000, -56.720
1134.8000, -57.037
1135.0000, -56.950
1135.2000, -57.198
1135.4000, -56.912
1135.6000, -57.233
1135.8000, -57.081
1136.0000, -57.019
1136.2000, -57.505
1136.4000, -57.089
1136.6000, -57.400
1136.8000, -57.152
1137.0000, -57.301
1137.2000, -57.233
1137.4000, -57.144
1137.6000, -57.153
1137.8000, -57.250
1138.0000, -57.072
1138.2000, -57.341
1138.4000, -57.176
1138.6000, -57.075
1138.8000, -57.206
1139.0000, -57.171
1139.2000, -57.294
1139.4000, -57.314
1139.6000, -57.327
1139.8000, -57.300
1140.0000, -57.334
1140.2000, -57.353
1140.4000, -57.265
1140.6000, -57.344
1140.8000, -57.440
1141.0000, -57.344
1141.2000, -57.273
1141.4000, -57.396
1141.6000, -57.358
1141.8000, -57.514
1142.0000, -57.242
1142.2000, -57.253
1142.4000, -57.134
1142.6000, -57.310
1142.8000, -57.400
1143.0000, -57.302
1143.2000, -57.488
1143.4000, -57.292
1143.6000, -57.477
1143.8000, -57.507
1144.0000, -57.421
1144.2000, -57.581
1144.4000, -57.386
1144.6000, -57.066
1144.8000, -57.515
1145.0000, -57.521
1145.2000, -57.435
1145.4000, -57.232
1145.6000, -57.415
1145.8000, -57.483
1146.0000, -57.320
1146.2000, -57.618
1146.4000, -57.551
1146.6000, -57.542
1146.8000, -57.632
1147.0000, -57.461
1147.2000, -57.506
1147.4000, -57.099
1147.6000, -57.427
1147.8000, -57.411
1148.0000, -57.495
1148.2000, -57.544
1148.4000, -57.290
1148.6000, -57.334
1148.8000, -57.536
1149.0000, -57.887
1149.2000, -57.562
1149.4000, -57.437
1149.6000, -57.637
1149.8000, -57.523
1150.0000, -57.851
1150.2000, -57.610
1150.4000, -57.415
1150.6000, -57.839
1150.8000, -57.638
1151.0000, -57.607
1151.2000, -57.365
1151.4000, -57.458
1151.6000, -57.675
1151.8000, -57.531
1152.0000, -57.879
1152.2000, -57.603
1152.4000, -57.357
1152.6000, -57.661
1152.8000, -57.958
1153.0000, -57.632
1153.2000, -57.441
1153.4000, -57.441
1153.6000, -57.689
1153.8000, -57.561
1154.0000, -57.400
1154.2000, -57.573
1154.4000, -57.803
1154.6000, -57.785
1154.8000, -57.398
1155.0000, -57.525
1155.2000, -57.653
1155.4000, -57.866
1155.6000, -58.040
1155.8000, -57.755
1156.0000, -57.795
1156.2000, -57.751
1156.4000, -57.714
1156.6000, -57.432
1156.8000, -57.587
1157.0000, -57.756
1157.2000, -57.588
1157.4000, -57.922
1157.6000, -57.877
1157.8000, -57.877
1158.0000, -57.834
1158.2000, -57.666
1158.4000, -57.650
1158.6000, -57.841
1158.8000, -57.902
1159.0000, -57.989
1159.2000, -57.564
1159.4000, -57.658
1159.6000, -58.077
1159.8000, -57.612
1160.0000, -57.854
1160.2000, -57.825
1160.4000, -57.703
1160.6000, -57.695
1160.8000, -58.000
1161.0000, -58.027
1161.2000, -57.817
1161.4000, -57.757
1161.6000, -57.920
1161.8000, -57.876
1162.0000, -57.864
1162.2000, -57.964
1162.4000, -57.978
1162.6000, -57.954
1162.8000, -57.891
1163.0000, -57.883
1163.2000, -57.964
1163.4000, -57.948
1163.6000, -57.925
1163.8000, -57.939
1164.0000, -57.864
1164.2000, -57.987
1164.4000, -58.154
1164.6000, -57.996
1164.8000, -57.871
1165.0000, -57.776
1165.2000, -58.080
1165.4000, -58.106
1165.6000, -57.942
1165.8000, -57.898
1166.0000, -58.058
1166.2000, -57.824
1166.4000, -58.086
1166.6000, -57.991
1166.8000, -58.017
1167.0000, -57.926
1167.2000, -57.961
1167.4000, -58.053
1167.6000, -57.832
1167.8000, -58.042
1168.0000, -57.942
1168.2000, -57.811
1168.4000, -58.066
1168.6000, -58.032
1168.8000, -58.000
1169.0000, -57.974
1169.2000, -58.132
1169.4000, -58.046
1169.6000, -58.018
1169.8000, -58.123
1170.0000, -58.284
1170.2000, -58.116
1170.4000, -58.178
1170.6000, -57.936
1170.8000, -58.006
1171.0000, -58.187
1171.2000, -58.162
1171.4000, -58.091
1171.6000, -58.129
1171.8000, -58.214
1172.0000, -58.374
1172.2000, -58.278
1172.4000, -57.997
1172.6000, -58.301
1172.8000, -58.364
1173.0000, -58.201
1173.2000, -58.155
1173.4000, -58.288
1173.6000, -58.363
1173.8000, -58.330
1174.0000, -58.485
1174.2000, -58.330
1174.4000, -58.106
1174.6000, -58.239
1174.8000, -58.129
1175.0000, -58.237
1175.2000, -58.214
1175.4000, -58.420
1175.6000, -58.069
1175.8000, -58.339
1176.0000, -58.317
1176.2000, -58.191
1176.4000, -58.324
1176.6000, -58.230
1176.8000, -58.373
1177.0000, -58.368
1177.2000, -58.171
1177.4000, -58.372
1177.6000, -58.300
1177.8000, -58.483
1178.0000, -58.384
1178.2000, -58.329
1178.4000, -58.295
1178.6000, -58.543
1178.8000, -58.533
1179.0000, -58.252
1179.2000, -58.493
1179.4000, -58.470
1179.6000, -58.403
1179.8000, -58.701
1180.0000, -58.308
1180.2000, -58.384
1180.4000, -58.439
1180.6000, -58.464
1180.8000, -58.586
1181.0000, -58.463
1181.2000, -58.731
1181.4000, -58.390
1181.6000, -58.737
1181.8000, -58.663
1182.0000, -58.613
1182.2000, -58.407
1182.4000, -58.795
1182.6000, -58.700
1182.8000, -58.516
1183.0000, -58.671
1183.2000, -58.509
1183.4000, -58.409
1183.6000, -58.969
1183.8000, -58.721
1184.0000, -58.518
1184.2000, -58.731
1184.4000, -58.767
1184.6000, -58.636
1184.8000, -58.607
1185.0000, -58.633
1185.2000, -58.731
1185.4000, -58.538
1185.6000, -58.727
1185.8000, -58.768
1186.0000, -58.716
1186.2000, -58.793
1186.4000, -58.530
1186.6000, -58.694
1186.8000, -58.661
1187.0000, -58.746
1187.2000, -58.886
1187.4000, -58.725
1187.6000, -58.863
1187.8000, -58.899
1188.0000, -58.906
1188.2000, -58.689
1188.4000, -58.764
1188.6000, -58.884
1188.8000, -58.684
1189.0000, -58.598
1189.2000, -58.583
1189.4000, -58.839
1189.6000, -58.844
1189.8000, -58.923
1190.0000, -58.843
1190.2000, -58.903
1190.4000, -58.621
1190.6000, -58.919
1190.8000, -59.086
1191.0000, -58.662
1191.2000, -58.819
1191.4000, -58.786
1191.6000, -58.826
1191.8000, -59.022
1192.0000, -58.771
1192.2000, -58.903
1192.4000, -58.734
1192.6000, -59.077
1192.8000, -58.996
1193.0000, -58.772
1193.2000, -58.841
1193.4000, -59.095
1193.6000, -58.965
1193.8000, -58.981
1194.0000, -59.226
1194.2000, -59.270
1194.4000, -59.164
1194.6000, -59.138
1194.8000, -58.876
1195.0000, -59.041
1195.2000, -58.890
1195.4000, -59.263
1195.6000, -58.987
1195.8000, -59.203
1196.0000, -59.115
1196.2000, -59.126
1196.4000, -58.874
1196.6000, -58.976
1196.8000, -59.283
1197.0000, -58.993
1197.2000, -58.850
1197.4000, -59.092
1197.6000, -59.058
1197.8000, -59.171
1198.0000, -59.157
1198.2000, -58.936
1198.4000, -59.114
1198.6000, -59.049
1198.8000, -59.429
1199.0000, -59.377
1199.2000, -59.460
1199.4000, -59.326
1199.6000, -59.309
1199.8000, -59.130
1200.0000, -59.231
1200.2000, -59.241
1200.4000, -59.395
1200.6000, -59.142
1200.8000, -59.356
1201.0000, -59.453
1201.2000, -59.555
1201.4000, -59.212
1201.6000, -59.300
1201.8000, -59.233
1202.0000, -58.921
1202.2000, -59.331
1202.4000, -59.387
1202.6000, -59.420
1202.8000, -59.241
1203.0000, -59.341
1203.2000, -59.119
1203.4000, -59.342
1203.6000, -59.414
1203.8000, -59.422
1204.0000, -59.318
1204.2000, -59.150
1204.4000, -59.225
1204.6000, -59.546
1204.8000, -59.292
1205.0000, -59.174
1205.2000, -59.208
1205.4000, -59.230
1205.6000, -59.120
1205.8000, -59.452
1206.0000, -59.334
1206.2000, -59.483
1206.4000, -59.492
1206.6000, -59.401
1206.8000, -59.497
1207.0000, -59.332
1207.2000, -59.636
1207.4000, -59.638
1207.6000, -59.627
1207.8000, -59.403
1208.0000, -59.674
1208.2000, -59.603
1208.4000, -59.418
1208.6000, -59.677
1208.8000, -59.610
1209.0000, -59.595
1209.2000, -59.848
1209.4000, -59.589
1209.6000, -59.328
1209.8000, -59.498
1210.0000, -59.622
1210.2000, -59.260
1210.4000, -59.193
1210.6000, -59.432
1210.8000, -59.397
1211.0000, -59.550
1211.2000, -59.629
1211.4000, -59.794
1211.6000, -59.563
1211.8000, -59.608
1212.0000, -59.780
1212.2000, -59.692
1212.4000, -59.444
1212.6000, -59.549
1212.8000, -59.696
1213.0000, -59.444
1213.2000, -59.423
1213.4000, -59.558
1213.6000, -59.579
1213.8000, -59.836
1214.0000, -59.414
1214.2000, -59.601
1214.4000, -59.449
1214.6000, -59.646
1214.8000, -59.861
1215.0000, -59.458
1215.2000, -59.908
1215.4000, -59.811
1215.6000, -59.661
1215.8000, -59.747
1216.0000, -59.822
1216.2000, -59.728
1216.4000, -59.613
1216.6000, -59.694
1216.8000, -59.558
1217.0000, -59.879
1217.2000, -59.661
1217.4000, -59.771
1217.6000, -59.763
1217.8000, -59.746
1218.0000, -59.554
1218.2000, -59.746
1218.4000, -59.896
1218.6000, -59.846
1218.8000, -59.898
1219.0000, -59.806
1219.2000, -59.740
1219.4000, -59.766
1219.6000, -59.759
1219.8000, -59.738
1220.0000, -59.993
1220.2000, -59.816
1220.4000, -59.808
1220.6000, -59.886
1220.8000, -59.898
1221.0000, -59.867
1221.2000, -59.776
1221.4000, -59.878
1221.6000, -60.112
1221.8000, -59.792
1222.0000, -59.765
1222.2000, -60.084
1222.4000, -59.837
1222.6000, -60.226
1222.8000, -60.203
1223.0000, -60.085
1223.2000, -60.161
1223.4000, -60.179
1223.6000, -60.028
1223.8000, -60.026
1224.0000, -60.011
1224.2000, -60.055
1224.4000, -59.881
1224.6000, -59.950
1224.8000, -60.216
1225.0000, -60.450
1225.2000, -60.126
1225.4000, -59.917
1225.6000, -60.123
1225.8000, -60.052
1226.0000, -60.005
1226.2000, -60.094
1226.4000, -60.196
1226.6000, -59.994
1226.8000, -59.835
1227.0000, -60.154
1227.2000, -60.017
1227.4000, -60.237
1227.6000, -60.456
1227.8000, -60.051
1228.0000, -60.056
1228.2000, -60.308
1228.4000, -60.316
1228.6000, -60.170
1228.8000, -60.220
1229.0000, -60.214
1229.2000, -60.270
1229.4000, -60.107
1229.6000, -60.248
1229.8000, -60.249
1230.0000, -60.637
1230.2000, -60.455
1230.4000, -60.213
1230.6000, -60.678
1230.8000, -60.539
1231.0000, -60.475
1231.2000, -60.437
1231.4000, -60.427
1231.6000, -60.582
1231.8000, -60.417
1232.0000, -60.254
1232.2000, -60.232
1232.4000, -60.630
1232.6000, -60.357
1232.8000, -60.423
1233.0000, -60.163
1233.2000, -60.320
1233.4000, -60.381
1233.6000, -60.338
1233.8000, -60.646
1234.0000, -60.236
1234.2000, -60.647
1234.4000, -60.489
1234.6000, -60.426
1234.8000, -60.402
1235.0000, -60.419
1235.2000, -60.405
1235.4000, -60.270
1235.6000, -60.735
1235.8000, -60.823
1236.0000, -60.489
1236.2000, -60.430
1236.4000, -60.796
1236.6000, -60.507
1236.8000, -60.667
1237.0000, -60.203
1237.2000, -60.576
1237.4000, -60.410
1237.6000, -60.722
1237.8000, -60.660
1238.0000, -60.562
1238.2000, -60.495
1238.4000, -60.437
1238.6000, -60.352
1238.8000, -60.432
1239.0000, -60.736
1239.2000, -60.396
1239.4000, -60.575
1239.6000, -60.428
1239.8000, -60.806
1240.0000, -60.486
1240.2000, -60.246
1240.4000, -60.384
1240.6000, -60.569
1240.8000, -60.618
1241.0000, -60.907
1241.2000, -60.651
1241.4000, -60.600
1241.6000, -60.793
1241.8000, -60.668
1242.0000, -60.721
1242.2000, -60.740
1242.4000, -60.352
1242.6000, -60.872
1242.8000, -60.654
1243.0000, -60.900
1243.2000, -60.633
1243.4000, -60.618
1243.6000, -60.544
1243.8000, -60.754
1244.0000, -60.773
1244.2000, -60.887
1244.4000, -60.746
1244.6000, -60.832
1244.8000, -60.519
1245.0000, -60.666
1245.2000, -60.787
1245.4000, -60.424
1245.6000, -60.932
1245.8000, -60.628
1246.0000, -60.796
1246.2000, -60.889
1246.4000, -60.739
1246.6000, -60.472
1246.8000, -60.710
1247.0000, -61.006
1247.2000, -60.908
1247.4000, -60.799
1247.6000, -60.905
1247.8000, -60.624
1248.0000, -61.095
1248.2000, -60.873
1248.4000, -60.869
1248.6000, -61.037
1248.8000, -61.026
1249.0000, -60.748
1249.2000, -61.118
1249.4000, -61.028
1249.6000, -60.889
1249.8000, -60.906
1250.0000, -61.100
1250.2000, -60.879
1250.4000, -60.627
1250.6000, -60.983
1250.8000, -61.131
1251.0000, -60.841
1251.2000, -60.720
1251.4000, -61.148
1251.6000, -61.032
1251.8000, -60.707
1252.0000, -60.791
1252.2000, -60.889
1252.4000, -60.725
1252.6000, -60.771
1252.8000, -60.980
1253.0000, -61.116
1253.2000, -60.835
1253.4000, -61.192
1253.6000, -61.023
1253.8000, -60.916
1254.0000, -61.188
1254.2000, -61.003
1254.4000, -61.042
1254.6000, -61.238
1254.8000, -61.260
1255.0000, -61.059
1255.2000, -61.134
1255.4000, -61.285
1255.6000, -61.058
1255.8000, -61.054
1256.0000, -61.131
1256.2000, -61.237
1256.4000, -61.387
1256.6000, -60.990
1256.8000, -60.856
1257.0000, -61.043
1257.2000, -61.315
1257.4000, -60.967
1257.6000, -61.473
1257.8000, -61.159
1258.0000, -61.281
1258.2000, -61.015
1258.4000, -61.012
1258.6000, -61.215
1258.8000, -61.015
1259.0000, -61.359
1259.2000, -61.114
1259.4000, -61.084
1259.6000, -61.117
1259.8000, -61.047
1260.0000, -61.060
1260.2000, -61.364
1260.4000, -60.912
1260.6000, -60.995
1260.8000, -61.085
1261.0000, -61.425
1261.2000, -61.344
1261.4000, -61.403
1261.6000, -61.169
1261.8000, -61.057
1262.0000, -60.948
1262.2000, -61.134
1262.4000, -61.257
1262.6000, -61.025
1262.8000, -61.022
1263.0000, -61.286
1263.2000, -61.177
1263.4000, -61.306
1263.6000, -61.338
1263.8000, -61.356
1264.0000, -61.366
1264.2000, -61.360
1264.4000, -61.144
1264.6000, -61.206
1264.8000, -61.435
1265.0000, -61.166
1265.2000, -61.361
1265.4000, -61.227
1265.6000, -61.254
1265.8000, -61.405
1266.0000, -61.383
1266.2000, -61.488
1266.4000, -61.442
1266.6000, -61.379
1266.8000, -61.411
1267.0000, -61.380
1267.2000, -61.133
1267.4000, -61.407
1267.6000, -61.434
1267.8000, -61.402
1268.0000, -61.238
1268.2000, -61.401
1268.4000, -61.770
1268.6000, -61.408
1268.8000, -61.346
1269.0000, -61.399
1269.2000, -61.393
1269.4000, -61.808
1269.6000, -61.437
1269.8000, -61.803
1270.0000, -61.461
1270.2000, -61.494
1270.4000, -61.398
1270.6000, -61.322
1270.8000, -61.649
1271.0000, -61.590
1271.2000, -61.621
1271.4000, -61.637
1271.6000, -61.450
1271.8000, -61.736
1272.0000, -61.515
1272.2000, -61.694
1272.4000, -61.617
1272.6000, -61.498
1272.8000, -61.832
1273.0000, -61.621
1273.2000, -61.709
1273.4000, -61.863
1273.6000, -61.474
1273.8000, -61.445
1274.0000, -61.316
1274.2000, -61.594
1274.4000, -61.836
1274.6000, -61.852
1274.8000, -61.529
1275.0000, -61.519
1275.2000, -61.699
1275.4000, -61.773
1275.6000, -61.472
1275.8000, -61.622
1276.0000, -61.756
1276.2000, -61.574
1276.4000, -61.605
1276.6000, -61.815
1276.8000, -61.666
1277.0000, -61.664
1277.2000, -61.910
1277.4000, -61.730
1277.6000, -62.120
1277.8000, -61.469
1278.0000, -61.688
1278.2000, -61.675
1278.4000, -61.658
1278.6000, -61.678
1278.8000, -61.633
1279.0000, -61.608
1279.2000, -62.031
1279.4000, -61.752
1279.6000, -62.012
1279.8000, -61.773
1280.0000, -61.635
1280.2000, -61.858
1280.4000, -61.752
1280.6000, -61.764
1280.8000, -61.987
1281.0000, -61.673
1281.2000, -61.830
1281.4000, -61.991
1281.6000, -61.960
1281.8000, -61.939
1282.0000, -61.904
1282.2000, -62.000
1282.4000, -61.976
1282.6000, -61.601
1282.8000, -62.042
1283.0000, -61.746
1283.2000, -61.842
1283.4000, -62.057
1283.6000, -61.740
1283.8000, -61.796
1284.0000, -61.589
1284.2000, -61.548
1284.4000, -62.195
1284.6000, -61.975
1284.8000, -62.056
1285.0000, -61.797
1285.2000, -62.143
1285.4000, -61.853
1285.6000, -61.970
1285.8000, -62.134
1286.0000, -61.774
1286.2000, -62.279
1286.4000, -62.108
1286.6000, -62.066
1286.8000, -62.261
1287.0000, -62.157
1287.2000, -62.060
1287.4000, -61.994
1287.6000, -62.225
1287.8000, -62.300
1288.0000, -61.893
1288.2000, -62.125
1288.4000, -62.238
1288.6000, -62.066
1288.8000, -62.054
1289.0000, -62.033
1289.2000, -62.034
1289.4000, -62.404
1289.6000, -61.934
1289.8000, -62.170
1290.0000, -62.138
1290.2000, -61.958
1290.4000, -62.102
1290.6000, -62.044
1290.8000, -62.137
1291.0000, -62.084
1291.2000, -61.873
1291.4000, -62.054
1291.6000, -62.142
1291.8000, -61.980
1292.0000, -62.013
1292.2000, -62.107
1292.4000, -62.471
1292.6000, -62.157
1292.8000, -62.123
1293.0000, -61.966
1293.2000, -62.194
1293.4000, -62.250
1293.6000, -62.223
1293.8000, -62.271
1294.0000, -62.225
1294.2000, -62.100
1294.4000, -62.265
1294.6000, -62.045
1294.8000, -62.142
1295.0000, -62.139
1295.2000, -62.199
1295.4000, -62.286
1295.6000, -62.183
1295.8000, -62.328
1296.0000, -62.377
1296.2000, -62.160
1296.4000, -62.235
1296.6000, -62.347
1296.8000, -62.148
1297.0000, -61.974
1297.2000, -62.373
1297.4000, -62.456
1297.6000, -62.382
1297.8000, -62.189
1298.0000, -62.383
1298.2000, -62.371
1298.4000, -62.002
1298.6000, -62.317
1298.8000, -62.459
1299.0000, -62.022
1299.2000, -62.226
1299.4000, -62.463
1299.6000, -62.297
1299.8000, -62.445
1300.0000, -62.676
1300.2000, -62.413
1300.4000, -62.330
1300.6000, -62.377
1300.8000, -62.308
1301.0000, -62.456
1301.2000, -62.309
1301.4000, -62.604
1301.6000, -62.606
1301.8000, -62.342
1302.0000, -62.337
1302.2000, -62.281
1302.4000, -62.494
1302.6000, -62.529
1302.8000, -62.417
1303.0000, -62.367
1303.2000, -62.543
1303.4000, -62.687
1303.6000, -62.312
1303.8000, -62.367
1304.0000, -62.286
1304.2000, -62.625
1304.4000, -62.539
1304.6000, -62.855
1304.8000, -62.490
1305.0000, -62.767
1305.2000, -62.345
1305.4000, -62.352
1305.6000, -62.770
1305.8000, -62.386
1306.0000, -62.549
1306.2000, -62.629
1306.4000, -62.495
1306.6000, -62.544
1306.8000, -62.710
1307.0000, -62.701
1307.2000, -62.719
1307.4000, -62.819
1307.6000, -62.464
1307.8000, -62.633
1308.0000, -62.356
1308.2000, -62.720
1308.4000, -62.557
1308.6000, -62.394
1308.8000, -62.593
1309.0000, -62.465
1309.2000, -62.505
1309.4000, -62.939
1309.6000, -62.371
1309.8000, -62.855
1310.0000, -62.770
1310.2000, -62.255
1310.4000, -62.445
1310.6000, -62.630
1310.8000, -62.608
1311.0000, -62.334
1311.2000, -62.488
1311.4000, -62.361
1311.6000, -62.567
1311.8000, -62.588
1312.0000, -62.488
1312.2000, -62.812
1312.4000, -62.947
1312.6000, -62.581
1312.8000, -62.954
1313.0000, -62.827
1313.2000, -62.721
1313.4000, -62.800
1313.6000, -62.694
1313.8000, -62.655
1314.0000, -62.737
1314.2000, -62.792
1314.4000, -62.835
1314.6000, -62.549
1314.8000, -62.771
1315.0000, -62.812
1315.2000, -62.384
1315.4000, -62.376
1315.6000, -62.815
1315.8000, -62.782
1316.0000, -62.781
1316.2000, -62.913
1316.4000, -62.827
1316.6000, -62.755
1316.8000, -62.819
1317.0000, -62.614
1317.2000, -62.714
1317.4000, -62.676
1317.6000, -62.942
1317.8000, -62.923
1318.0000, -62.739
1318.2000, -62.870
1318.4000, -62.608
1318.6000, -62.930
1318.8000, -62.987
1319.0000, -63.027
1319.2000, -62.619
1319.4000, -63.035
1319.6000, -62.824
1319.8000, -62.836
1320.0000, -62.740
1320.2000, -62.853
1320.4000, -62.828
1320.6000, -63.028
1320.8000, -62.893
1321.0000, -62.923
1321.2000, -62.923
1321.4000, -62.841
1321.6000, -62.931
1321.8000, -62.673
1322.0000, -62.761
1322.2000, -62.790
1322.4000, -62.782
1322.6000, -62.777
1322.8000, -62.794
1323.0000, -62.730
1323.2000, -62.692
1323.4000, -62.681
1323.6000, -62.701
1323.8000, -63.006
1324.0000, -62.965
1324.2000, -62.875
1324.4000, -62.673
1324.6000, -62.881
1324.8000, -62.969
1325.0000, -62.804
1325.2000, -62.860
1325.4000, -62.751
1325.6000, -62.636
1325.8000, -62.964
1326.0000, -63.116
1326.2000, -63.035
1326.4000, -62.845
1326.6000, -62.832
1326.8000, -63.022
1327.0000, -63.224
1327.2000, -63.111
1327.4000, -62.897
1327.6000, -63.067
1327.8000, -62.721
1328.0000, -63.117
1328.2000, -62.815
1328.4000, -62.735
1328.6000, -63.134
1328.8000, -62.919
1329.0000, -63.237
1329.2000, -62.827
1329.4000, -62.782
1329.6000, -62.672
1329.8000, -62.959
1330.0000, -63.019
1330.2000, -62.771
1330.4000, -62.969
1330.6000, -63.137
1330.8000, -62.936
1331.0000, -62.897
1331.2000, -63.136
1331.4000, -63.305
1331.6000, -62.998
1331.8000, -62.866
1332.0000, -62.925
1332.2000, -63.281
1332.4000, -63.055
1332.6000, -63.096
1332.8000, -63.137
1333.0000, -63.216
1333.2000, -62.682
1333.4000, -63.010
1333.6000, -62.834
1333.8000, -62.996
1334.0000, -63.336
1334.2000, -63.071
1334.4000, -62.862
1334.6000, -62.977
1334.8000, -63.056
1335.0000, -62.865
1335.2000, -63.176
1335.4000, -63.120
1335.6000, -62.937
1335.8000, -63.244
1336.0000, -63.117
1336.2000, -63.081
1336.4000, -62.784
1336.6000, -63.127
1336.8000, -63.047
1337.0000, -63.214
1337.2000, -63.038
1337.4000, -63.299
1337.6000, -63.079
1337.8000, -63.149
1338.0000, -63.031
1338.2000, -63.170
1338.4000, -63.267
1338.6000, -63.215
1338.8000, -63.128
1339.0000, -63.006
1339.2000, -63.142
1339.4000, -62.776
1339.6000, -63.254
1339.8000, -63.035
1340.0000, -63.162
1340.2000, -62.920
1340.4000, -62.771
1340.6000, -63.331
1340.8000, -63.104
1341.0000, -63.024
1341.2000, -62.905
1341.4000, -62.944
1341.6000, -62.762
1341.8000, -63.039
1342.0000, -63.168
1342.2000, -62.967
1342.4000, -63.161
1342.6000, -63.265
1342.8000, -63.414
1343.0000, -63.299
1343.2000, -63.127
1343.4000, -63.248
1343.6000, -63.263
1343.8000, -63.306
1344.0000, -63.421
1344.2000, -62.921
1344.4000, -63.155
1344.6000, -63.034
1344.8000, -62.888
1345.0000, -63.288
1345.2000, -63.343
1345.4000, -63.162
1345.6000, -63.331
1345.8000, -63.247
1346.0000, -63.248
1346.2000, -63.406
1346.4000, -63.257
1346.6000, -63.084
1346.8000, -63.225
1347.0000, -63.203
1347.2000, -63.194
1347.4000, -63.632
1347.6000, -62.944
1347.8000, -63.316
1348.0000, -63.419
1348.2000, -63.495
1348.4000, -62.999
1348.6000, -63.365
1348.8000, -63.356
1349.0000, -63.343
1349.2000, -63.359
1349.4000, -63.048
1349.6000, -63.153
1349.8000, -63.269
1350.0000, -63.239
1350.2000, -63.007
1350.4000, -63.095
1350.6000, -63.369
1350.8000, -63.634
1351.0000, -63.438
1351.2000, -63.227
1351.4000, -63.201
1351.6000, -63.206
1351.8000, -63.101
1352.0000, -63.003
1352.2000, -63.264
1352.4000, -63.309
1352.6000, -63.584
1352.8000, -63.473
1353.0000, -63.180
1353.2000, -63.175
1353.4000, -63.332
1353.6000, -63.142
1353.8000, -63.351
1354.0000, -63.100
1354.2000, -63.158
1354.4000, -63.388
1354.6000, -63.451
1354.8000, -63.316
1355.0000, -63.193
1355.2000, -63.562
1355.4000, -63.365
1355.6000, -63.196
1355.8000, -63.409
1356.0000, -63.377
1356.2000, -63.266
1356.4000, -63.227
1356.6000, -63.148
1356.8000, -63.402
1357.0000, -63.248
1357.2000, -63.327
1357.4000, -63.445
1357.6000, -63.690
1357.8000, -63.428
1358.0000, -63.205
1358.2000, -63.879
1358.4000, -63.616
1358.6000, -63.198
1358.8000, -63.827
1359.0000, -63.374
1359.2000, -63.441
1359.4000, -63.770
1359.6000, -63.441
1359.8000, -63.327
1360.0000, -63.553
1360.2000, -63.856
1360.4000, -63.442
1360.6000, -63.689
1360.8000, -63.446
1361.0000, -63.817
1361.2000, -63.765
1361.4000, -63.541
1361.6000, -63.713
1361.8000, -63.356
1362.0000, -63.485
1362.2000, -63.493
1362.4000, -63.467
1362.6000, -63.373
1362.8000, -63.692
1363.0000, -63.408
1363.2000, -63.565
1363.4000, -63.511
1363.6000, -63.659
1363.8000, -63.395
1364.0000, -63.360
1364.2000, -63.500
1364.4000, -63.530
1364.6000, -63.397
1364.8000, -63.435
1365.0000, -63.470
1365.2000, -63.671
1365.4000, -63.633
1365.6000, -63.328
1365.8000, -63.623
1366.0000, -63.203
1366.2000, -63.308
1366.4000, -63.349
1366.6000, -63.319
1366.8000, -63.701
1367.0000, -63.475
1367.2000, -63.371
1367.4000, -63.498
1367.6000, -63.222
1367.8000, -63.623
1368.0000, -63.402
1368.2000, -63.327
1368.4000, -63.474
1368.6000, -63.697
1368.8000, -63.457
1369.0000, -63.342
1369.2000, -63.383
1369.4000, -63.562
1369.6000, -63.413
1369.8000, -63.319
1370.0000, -63.687
1370.2000, -63.564
1370.4000, -63.340
1370.6000, -63.405
1370.8000, -63.628
1371.0000, -63.407
1371.2000, -63.320
1371.4000, -63.750
1371.6000, -63.554
1371.8000, -63.271
1372.0000, -63.442
1372.2000, -63.306
1372.4000, -63.605
1372.6000, -63.385
1372.8000, -63.698
1373.0000, -63.375
1373.2000, -63.540
1373.4000, -63.541
1373.6000, -63.654
1373.8000, -63.733
1374.0000, -63.507
1374.2000, -63.587
1374.4000, -63.549
1374.6000, -63.584
1374.8000, -63.787
1375.0000, -63.433
1375.2000, -63.545
1375.4000, -63.530
1375.6000, -63.471
1375.8000, -63.508
1376.0000, -63.628
1376.2000, -63.636
1376.4000, -63.255
1376.6000, -63.500
1376.8000, -63.450
1377.0000, -63.480
1377.2000, -63.758
1377.4000, -63.547
1377.6000, -63.415
1377.8000, -63.578
1378.0000, -63.964
1378.2000, -63.406
1378.4000, -63.521
1378.6000, -63.704
1378.8000, -63.477
1379.0000, -63.418
1379.2000, -63.354
1379.4000, -63.529
1379.6000, -63.424
1379.8000, -63.522
1380.0000, -63.468
1380.2000, -63.579
1380.4000, -63.591
1380.6000, -63.449
1380.8000, -63.384
1381.0000, -63.617
1381.2000, -63.614
1381.4000, -63.352
1381.6000, -63.692
1381.8000, -63.420
1382.0000, -63.805
1382.2000, -63.469
1382.4000, -63.514
1382.6000, -63.690
1382.8000, -63.556
1383.0000, -63.572
1383.2000, -63.363
1383.4000, -63.531
1383.6000, -63.399
1383.8000, -63.630
1384.0000, -63.660
1384.2000, -63.555
1384.4000, -63.688
1384.6000, -63.629
1384.8000, -63.345
1385.0000, -63.273
1385.2000, -63.319
1385.4000, -63.448
1385.6000, -63.505
1385.8000, -63.184
1386.0000, -63.329
1386.2000, -63.570
1386.4000, -63.392
1386.6000, -63.434
1386.8000, -63.583
1387.0000, -63.590
1387.2000, -63.871
1387.4000, -63.341
1387.6000, -63.214
1387.8000, -63.384
1388.0000, -63.330
1388.2000, -63.855
1388.4000, -63.079
1388.6000, -63.551
1388.8000, -63.691
1389.0000, -63.229
1389.2000, -63.553
1389.4000, -63.247
1389.6000, -63.489
1389.8000, -63.281
1390.0000, -63.638
1390.2000, -63.721
1390.4000, -63.498
1390.6000, -63.629
1390.8000, -63.297
1391.0000, -63.245
1391.2000, -63.226
1391.4000, -63.172
1391.6000, -63.528
1391.8000, -63.344
1392.0000, -63.229
1392.2000, -63.322
1392.4000, -63.712
1392.6000, -63.449
1392.8000, -63.332
1393.0000, -63.397
1393.2000, -63.255
1393.4000, -63.283
1393.6000, -63.825
1393.8000, -63.118
1394.0000, -63.057
1394.2000, -63.411
1394.4000, -63.412
1394.6000, -63.576
1394.8000, -63.227
1395.0000, -63.347
1395.2000, -63.408
1395.4000, -63.407
1395.6000, -63.269
1395.8000, -63.495
1396.0000, -63.144
1396.2000, -63.253
1396.4000, -63.056
1396.6000, -63.403
1396.8000, -63.187
1397.0000, -63.267
1397.2000, -63.587
1397.4000, -63.184
1397.6000, -63.393
1397.8000, -63.633
1398.0000, -63.273
1398.2000, -63.522
1398.4000, -63.013
1398.6000, -63.422
1398.8000, -63.148
1399.0000, -63.335
1399.2000, -63.152
1399.4000, -63.329
1399.6000, -63.176
1399.8000, -63.403
1400.0000, -63.213
1400.2000, -63.077
1400.4000, -63.149
1400.6000, -63.196
1400.8000, -63.273
1401.0000, -63.419
1401.2000, -63.020
1401.4000, -63.078
1401.6000, -63.242
1401.8000, -63.430
1402.0000, -63.171
1402.2000, -63.138
1402.4000, -63.348
1402.6000, -63.265
1402.8000, -63.125
1403.0000, -63.318
1403.2000, -63.177
1403.4000, -62.917
1403.6000, -63.118
1403.8000, -63.040
1404.0000, -62.805
1404.2000, -62.838
1404.4000, -63.062
1404.6000, -63.108
1404.8000, -63.183
1405.0000, -63.041
1405.2000, -63.056
1405.4000, -62.979
1405.6000, -62.763
1405.8000, -62.813
1406.0000, -63.203
1406.2000, -63.043
1406.4000, -62.950
1406.6000, -62.919
1406.8000, -62.985
1407.0000, -62.836
1407.2000, -62.917
1407.4000, -63.043
1407.6000, -62.920
1407.8000, -62.870
1408.0000, -62.946
1408.2000, -62.973
1408.4000, -62.979
1408.6000, -62.911
1408.8000, -62.919
1409.0000, -62.828
1409.2000, -62.911
1409.4000, -62.725
1409.6000, -62.537
1409.8000, -62.642
1410.0000, -62.659
1410.2000, -62.699
1410.4000, -62.763
1410.6000, -62.702
1410.8000, -62.655
1411.0000, -62.714
1411.2000, -62.692
1411.4000, -62.552
1411.6000, -62.770
1411.8000, -62.603
1412.0000, -62.381
1412.2000, -62.554
1412.4000, -62.548
1412.6000, -62.652
1412.8000, -62.406
1413.0000, -62.502
1413.2000, -62.417
1413.4000, -62.390
1413.6000, -62.323
1413.8000, -62.395
1414.0000, -62.394
1414.2000, -62.477
1414.4000, -62.396
1414.6000, -62.178
1414.8000, -62.342
1415.0000, -62.149
1415.2000, -62.256
1415.4000, -62.064
1415.6000, -62.214
1415.8000, -62.050
1416.0000, -62.000
1416.2000, -62.017
1416.4000, -62.112
1416.6000, -61.997
1416.8000, -61.943
1417.0000, -61.875
1417.2000, -62.053
1417.4000, -61.911
1417.6000, -61.804
1417.8000, -61.867
1418.0000, -61.944
1418.2000, -61.756
1418.4000, -61.735
1418.6000, -61.714
1418.8000, -61.620
1419.0000, -61.621
1419.2000, -61.668
1419.4000, -61.761
1419.6000, -61.619
1419.8000, -61.620
1420.0000, -61.443
1420.2000, -61.547
1420.4000, -61.669
1420.6000, -61.524
1420.8000, -61.511
1421.0000, -61.226
1421.2000, -61.247
1421.4000, -61.389
1421.6000, -61.129
1421.8000, -61.268
1422.0000, -61.334
1422.2000, -61.018
1422.4000, -61.156
1422.6000, -61.045
1422.8000, -60.985
1423.0000, -61.160
1423.2000, -61.012
1423.4000, -61.029
1423.6000, -61.057
1423.8000, -61.007
1424.0000, -60.807
1424.2000, -60.853
1424.4000, -60.911
1424.6000, -60.826
1424.8000, -60.726
1425.0000, -60.750
1425.2000, -60.631
1425.4000, -60.728
1425.6000, -60.629
1425.8000, -60.705
1426.0000, -60.526
1426.2000, -60.477
1426.4000, -60.500
1426.6000, -60.332
1426.8000, -60.268
1427.0000, -60.421
1427.2000, -60.241
1427.4000, -60.185
1427.6000, -60.179
1427.8000, -60.301
1428.0000, -60.105
1428.2000, -60.171
1428.4000, -59.972
1428.6000, -60.040
1428.8000, -59.931
1429.0000, -59.959
1429.2000, -59.944
1429.4000, -59.905
1429.6000, -59.900
1429.8000, -59.835
1430.0000, -59.801
1430.2000, -59.675
1430.4000, -59.639
1430.6000, -59.668
1430.8000, -59.584
1431.0000, -59.664
1431.2000, -59.535
1431.4000, -59.476
1431.6000, -59.378
1431.8000, -59.412
1432.0000, -59.411
1432.2000, -59.313
1432.4000, -59.239
1432.6000, -59.170
1432.8000, -59.073
1433.0000, -59.092
1433.2000, -59.092
1433.4000, -58.959
1433.6000, -58.931
1433.8000, -58.921
1434.0000, -58.880
1434.2000, -58.784
1434.4000, -58.851
1434.6000, -58.639
1434.8000, -58.685
1435.0000, -58.593
1435.2000, -58.486
1435.4000, -58.663
1435.6000, -58.462
1435.8000, -58.475
1436.0000, -58.444
1436.2000, -58.351
1436.4000, -58.271
1436.6000, -58.287
1436.8000, -58.186
1437.0000, -58.204
1437.2000, -58.126
1437.4000, -58.077
1437.6000, -57.988
1437.8000, -58.055
1438.0000, -58.031
1438.2000, -57.913
1438.4000, -57.814
1438.6000, -57.828
1438.8000, -57.706
1439.0000, -57.746
1439.2000, -57.668
1439.4000, -57.674
1439.6000, -57.492
1439.8000, -57.498
1440.0000, -57.480
1440.2000, -57.466
1440.4000, -57.469
1440.6000, -57.399
1440.8000, -57.391
1441.0000, -57.319
1441.2000, -57.309
1441.4000, -57.295
1441.6000, -57.259
1441.8000, -57.190
1442.0000, -57.186
1442.2000, -57.104
1442.4000, -57.070
1442.6000, -57.012
1442.8000, -56.966
1443.0000, -56.948
1443.2000, -56.872
1443.4000, -56.805
1443.6000, -56.772
1443.8000, -56.746
1444.0000, -56.639
1444.2000, -56.634
1444.4000, -56.575
1444.6000, -56.472
1444.8000, -56.438
1445.0000, -56.374
1445.2000, -56.372
1445.4000, -56.300
1445.6000, -56.232
1445.8000, -56.200
1446.0000, -56.104
1446.2000, -56.072
1446.4000, -55.999
1446.6000, -55.889
1446.8000, -55.832
1447.0000, -55.791
1447.2000, -55.679
1447.4000, -55.649
1447.6000, -55.574
1447.8000, -55.553
1448.0000, -55.417
1448.2000, -55.394
1448.4000, -55.315
1448.6000, -55.277
1448.8000, -55.213
1449.0000, -55.128
1449.2000, -55.149
1449.4000, -55.056
1449.6000, -55.011
1449.8000, -54.929
1450.0000, -54.928
1450.2000, -54.874
1450.4000, -54.784
1450.6000, -54.768
1450.8000, -54.702
1451.0000, -54.617
1451.2000, -54.572
1451.4000, -54.468
1451.6000, -54.455
1451.8000, -54.370
1452.0000, -54.300
1452.2000, -54.295
1452.4000, -54.181
1452.6000, -54.134
1452.8000, -54.080
1453.0000, -54.011
1453.2000, -53.934
1453.4000, -53.901
1453.6000, -53.797
1453.8000, -53.733
1454.0000, -53.668
1454.2000, -53.628
1454.4000, -53.562
1454.6000, -53.484
1454.8000, -53.454
1455.0000, -53.409
1455.2000, -53.376
1455.4000, -53.286
1455.6000, -53.232
1455.8000, -53.161
1456.0000, -53.079
1456.2000, -53.027
1456.4000, -52.943
1456.6000, -52.875
1456.8000, -52.843
1457.0000, -52.776
1457.2000, -52.686
1457.4000, -52.660
1457.6000, -52.591
1457.8000, -52.496
1458.0000, -52.440
1458.2000, -52.355
1458.4000, -52.276
1458.6000, -52.208
1458.8000, -52.142
1459.0000, -52.082
1459.2000, -51.987
1459.4000, -51.926
1459.6000, -51.848
1459.8000, -51.800
1460.0000, -51.719
1460.2000, -51.649
1460.4000, -51.562
1460.6000, -51.486
1460.8000, -51.405
1461.0000, -51.314
1461.2000, -51.241
1461.4000, -51.143
1461.6000, -51.072
1461.8000, -50.978
1462.0000, -50.893
1462.2000, -50.820
1462.4000, -50.735
1462.6000, -50.654
1462.8000, -50.600
1463.0000, -50.517
1463.2000, -50.425
1463.4000, -50.354
1463.6000, -50.268
1463.8000, -50.175
1464.0000, -50.087
1464.2000, -49.996
1464.4000, -49.923
1464.6000, -49.856
1464.8000, -49.789
1465.0000, -49.725
1465.2000, -49.643
1465.4000, -49.573
1465.6000, -49.499
1465.8000, -49.424
1466.0000, -49.339
1466.2000, -49.258
1466.4000, -49.186
1466.6000, -49.122
1466.8000, -49.049
1467.0000, -48.975
1467.2000, -48.892
1467.4000, -48.821
1467.6000, -48.741
1467.8000, -48.661
1468.0000, -48.586
1468.2000, -48.512
1468.4000, -48.433
1468.6000, -48.355
1468.8000, -48.282
1469.0000, -48.209
1469.2000, -48.157
1469.4000, -48.078
1469.6000, -48.000
1469.8000, -47.927
1470.0000, -47.857
1470.2000, -47.788
1470.4000, -47.701
1470.6000, -47.632
1470.8000, -47.552
1471.0000, -47.476
1471.2000, -47.389
1471.4000, -47.281
1471.6000, -47.195
1471.8000, -47.138
1472.0000, -47.067
1472.2000, -46.996
1472.4000, -46.916
1472.6000, -46.840
1472.8000, -46.766
1473.0000, -46.664
1473.2000, -46.584
1473.4000, -46.507
1473.6000, -46.421
1473.8000, -46.347
1474.0000, -46.257
1474.2000, -46.171
1474.4000, -46.077
1474.6000, -45.993
1474.8000, -45.906
1475.0000, -45.819
1475.2000, -45.743
1475.4000, -45.665
1475.6000, -45.574
1475.8000, -45.489
1476.0000, -45.402
1476.2000, -45.315
1476.4000, -45.219
1476.6000, -45.131
1476.8000, -45.045
1477.0000, -44.949
1477.2000, -44.869
1477.4000, -44.795
1477.6000, -44.707
1477.8000, -44.608
1478.0000, -44.523
1478.2000, -44.435
1478.4000, -44.336
1478.6000, -44.235
1478.8000, -44.151
1479.0000, -44.074
1479.2000, -43.991
1479.4000, -43.909
1479.6000, -43.831
1479.8000, -43.764
1480.0000, -43.693
1480.2000, -43.620
1480.4000, -43.544
1480.6000, -43.462
1480.8000, -43.388
1481.0000, -43.301
1481.2000, -43.233
1481.4000, -43.153
1481.6000, -43.085
1481.8000, -43.015
1482.0000, -42.938
1482.2000, -42.862
1482.4000, -42.773
1482.6000, -42.693
1482.8000, -42.610
1483.0000, -42.535
1483.2000, -42.456
1483.4000, -42.378
1483.6000, -42.299
1483.8000, -42.223
1484.0000, -42.141
1484.2000, -42.058
1484.4000, -41.975
1484.6000, -41.884
1484.8000, -41.793
1485.0000, -41.699
1485.2000, -41.605
1485.4000, -41.507
1485.6000, -41.412
1485.8000, -41.318
1486.0000, -41.224
1486.2000, -41.133
1486.4000, -41.038
1486.6000, -40.944
1486.8000, -40.846
1487.0000, -40.745
1487.2000, -40.650
1487.4000, -40.548
1487.6000, -40.452
1487.8000, -40.360
1488.0000, -40.270
1488.2000, -40.178
1488.4000, -40.089
1488.6000, -39.999
1488.8000, -39.914
1489.0000, -39.830
1489.2000, -39.755
1489.4000, -39.678
1489.6000, -39.597
1489.8000, -39.517
1490.0000, -39.441
1490.2000, -39.362
1490.4000, -39.279
1490.6000, -39.203
1490.8000, -39.133
1491.0000, -39.065
1491.2000, -38.990
1491.4000, -38.921
1491.6000, -38.853
1491.8000, -38.783
1492.0000, -38.713
1492.2000, -38.643
1492.4000, -38.577
1492.6000, -38.506
1492.8000, -38.440
1493.0000, -38.371
1493.2000, -38.297
1493.4000, -38.224
1493.6000, -38.150
1493.8000, -38.070
1494.0000, -37.989
1494.2000, -37.907
1494.4000, -37.823
1494.6000, -37.734
1494.8000, -37.644
1495.0000, -37.554
1495.2000, -37.459
1495.4000, -37.361
1495.6000, -37.261
1495.8000, -37.157
1496.0000, -37.054
1496.2000, -36.944
1496.4000, -36.833
1496.6000, -36.718
1496.8000, -36.600
1497.0000, -36.483
1497.2000, -36.362
1497.4000, -36.243
1497.6000, -36.126
1497.8000, -36.013
1498.0000, -35.901
1498.2000, -35.787
1498.4000, -35.676
1498.6000, -35.568
1498.8000, -35.458
1499.0000, -35.350
1499.2000, -35.243
1499.4000, -35.136
1499.6000, -35.028
1499.8000, -34.923
1500.0000, -34.820
1500.2000, -34.716
1500.4000, -34.614
1500.6000, -34.518
1500.8000, -34.425
1501.0000, -34.333
1501.2000, -34.248
1501.4000, -34.171
1501.6000, -34.094
1501.8000, -34.020
1502.0000, -33.953
1502.2000, -33.888
1502.4000, -33.823
1502.6000, -33.758
1502.8000, -33.698
1503.0000, -33.637
1503.2000, -33.572
1503.4000, -33.511
1503.6000, -33.450
1503.8000, -33.388
1504.0000, -33.327
1504.2000, -33.269
1504.4000, -33.213
1504.6000, -33.155
1504.8000, -33.102
1505.0000, -33.053
1505.2000, -33.003
1505.4000, -32.953
1505.6000, -32.905
1505.8000, -32.858
1506.0000, -32.807
1506.2000, -32.752
1506.4000, -32.698
1506.6000, -32.640
1506.8000, -32.577
1507.0000, -32.512
1507.2000, -32.445
1507.4000, -32.375
1507.6000, -32.303
1507.8000, -32.235
1508.0000, -32.167
1508.2000, -32.097
1508.4000, -32.028
1508.6000, -31.962
1508.8000, -31.892
1509.0000, -31.817
1509.2000, -31.741
1509.4000, -31.660
1509.6000, -31.569
1509.8000, -31.471
1510.0000, -31.369
1510.2000, -31.257
1510.4000, -31.137
1510.6000, -31.011
1510.8000, -30.881
1511.0000, -30.746
1511.2000, -30.610
1511.4000, -30.474
1511.6000, -30.342
1511.8000, -30.211
1512.0000, -30.087
1512.2000, -29.969
1512.4000, -29.856
1512.6000, -29.746
1512.8000, -29.641
1513.0000, -29.541
1513.2000, -29.438
1513.4000, -29.339
1513.6000, -29.240
1513.8000, -29.140
1514.0000, -29.036
1514.2000, -28.931
1514.4000, -28.829
1514.6000, -28.723
1514.8000, -28.617
1515.0000, -28.514
1515.2000, -28.415
1515.4000, -28.320
1515.6000, -28.230
1515.8000, -28.150
1516.0000, -28.077
1516.2000, -28.008
1516.4000, -27.948
1516.6000, -27.895
1516.8000, -27.843
1517.0000, -27.790
1517.2000, -27.739
1517.4000, -27.687
1517.6000, -27.626
1517.8000, -27.561
1518.0000, -27.492
1518.2000, -27.412
1518.4000, -27.326
1518.6000, -27.235
1518.8000, -27.142
1519.0000, -27.047
1519.2000, -26.949
1519.4000, -26.858
1519.6000, -26.773
1519.8000, -26.694
1520.0000, -26.626
1520.2000, -26.570
1520.4000, -26.525
1520.6000, -26.491
1520.8000, -26.468
1521.0000, -26.455
1521.2000, -26.445
1521.4000, -26.438
1521.6000, -26.434
1521.8000, -26.427
1522.0000, -26.412
1522.2000, -26.388
1522.4000, -26.356
1522.6000, -26.311
1522.8000, -26.251
1523.0000, -26.184
1523.2000, -26.108
1523.4000, -26.024
1523.6000, -25.935
1523.8000, -25.851
1524.0000, -25.771
1524.2000, -25.692
1524.4000, -25.621
1524.6000, -25.563
1524.8000, -25.510
1525.0000, -25.464
1525.2000, -25.422
1525.4000, -25.385
1525.6000, -25.340
1525.8000, -25.283
1526.0000, -25.213
1526.2000, -25.118
1526.4000, -24.988
1526.6000, -24.826
1526.8000, -24.627
1527.0000, -24.390
1527.2000, -24.115
1527.4000, -23.813
1527.6000, -23.493
1527.8000, -23.158
1528.0000, -22.818
1528.2000, -22.484
1528.4000, -22.164
1528.6000, -21.857
1528.8000, -21.571
1529.0000, -21.318
1529.2000, -21.092
1529.4000, -20.897
1529.6000, -20.738
1529.8000, -20.618
1530.0000, -20.532
1530.2000, -20.478
1530.4000, -20.460
1530.6000, -20.478
1530.8000, -20.520
1531.0000, -20.588
1531.2000, -20.677
1531.4000, -20.782
1531.6000, -20.889
1531.8000, -20.993
1532.0000, -21.085
1532.2000, -21.150
1532.4000, -21.171
1532.6000, -21.145
1532.8000, -21.067
1533.0000, -20.928
1533.2000, -20.729
1533.4000, -20.485
1533.6000, -20.207
1533.8000, -19.902
1534.0000, -19.585
1534.2000, -19.271
1534.4000, -18.982
1534.6000, -18.686
1534.8000, -18.424
1535.0000, -18.198
1535.2000, -18.001
1535.4000, -17.835
1535.6000, -17.708
1535.8000, -17.617
1536.0000, -17.558
1536.2000, -17.526
1536.4000, -17.527
1536.6000, -17.555
1536.8000, -17.599
1537.0000, -17.654
1537.2000, -17.718
1537.4000, -17.779
1537.6000, -17.819
1537.8000, -17.828
1538.0000, -17.802
1538.2000, -17.723
1538.4000, -17.579
1538.6000, -17.373
1538.8000, -17.109
1539.0000, -16.785
1539.2000, -16.409
1539.4000, -16.002
1539.6000, -15.574
1539.8000, -15.134
1540.0000, -14.693
1540.2000, -14.267
1540.4000, -13.861
1540.6000, -13.472
1540.8000, -13.110
1541.0000, -12.785
1541.2000, -12.490
1541.4000, -12.227
1541.6000, -12.000
1541.8000, -11.816
1542.0000, -11.666
1542.2000, -11.547
1542.4000, -11.468
1542.6000, -11.431
1542.8000, -11.427
1543.0000, -11.459
1543.2000, -11.534
1543.4000, -11.656
1543.6000, -11.821
1543.8000, -12.031
1544.0000, -12.299
1544.2000, -12.623
1544.4000, -13.002
1544.6000, -13.448
1544.8000, -13.969
1545.0000, -14.573
1545.2000, -15.260
1545.4000, -16.049
1545.6000, -16.959
1545.8000, -17.997
1546.0000, -19.177
1546.2000, -20.514
1546.4000, -22.006
1546.6000, -23.536
1546.8000, -24.779
1547.0000, -25.173
1547.2000, -24.407
1547.4000, -22.891
1547.6000, -21.198
1547.8000, -19.596
1548.0000, -18.166
1548.2000, -16.904
1548.4000, -15.796
1548.6000, -14.829
1548.8000, -13.976
1549.0000, -13.217
1549.2000, -12.547
1549.4000, -11.959
1549.6000, -11.434
1549.8000, -10.963
1550.0000, -10.548
1550.2000, -10.184
1550.4000,  -9.856
1550.6000,  -9.556
1550.8000,  -9.292
1551.0000,  -9.063
1551.2000,  -8.852
1551.4000,  -8.663
1551.6000,  -8.503
1551.8000,  -8.369
1552.0000,  -8.252
1552.2000,  -8.154
1552.4000,  -8.084
1552.6000,  -8.034
1552.8000,  -7.998
1553.0000,  -7.982
1553.2000,  -7.990
1553.4000,  -8.018
1553.6000,  -8.057
1553.8000,  -8.115
1554.0000,  -8.197
1554.2000,  -8.291
1554.4000,  -8.397
1554.6000,  -8.520
1554.8000,  -8.663
1555.0000,  -8.821
1555.2000,  -8.984
1555.4000,  -9.166
1555.6000,  -9.368
1555.8000,  -9.576
1556.0000,  -9.790
1556.2000, -10.015
1556.4000, -10.255
1556.6000, -10.497
1556.8000, -10.743
1557.0000, -11.006
1557.2000, -11.281
1557.4000, -11.563
1557.6000, -11.856
1557.8000, -12.169
1558.0000, -12.504
1558.2000, -12.849
1558.4000, -13.218
1558.6000, -13.613
1558.8000, -14.031
1559.0000, -14.464
1559.2000, -14.913
1559.4000, -15.385
1559.6000, -15.867
1559.8000, -16.346
1560.0000, -16.825
1560.2000, -17.297
1560.4000, -17.751
1560.6000, -18.167
1560.8000, -18.552
1561.0000, -18.913
1561.2000, -19.228
1561.4000, -19.494
1561.6000, -19.725
1561.8000, -19.930
1562.0000, -20.092
1562.2000, -20.213
1562.4000, -20.298
1562.6000, -20.349
1562.8000, -20.346
1563.0000, -20.285
1563.2000, -20.174
1563.4000, -20.012
1563.6000, -19.798
1563.8000, -19.540
1564.0000, -19.259
1564.2000, -18.960
1564.4000, -18.643
1564.6000, -18.323
1564.8000, -18.020
1565.0000, -17.733
1565.2000, -17.457
1565.4000, -17.206
1565.6000, -16.989
1565.8000, -16.796
1566.0000, -16.622
1566.2000, -16.472
1566.4000, -16.348
1566.6000, -16.239
1566.8000, -16.133
1567.0000, -16.039
1567.2000, -15.956
1567.4000, -15.875
1567.6000, -15.790
1567.8000, -15.709
1568.0000, -15.636
1568.2000, -15.555
1568.4000, -15.463
1568.6000, -15.367
1568.8000, -15.271
1569.0000, -15.163
1569.2000, -15.042
1569.4000, -14.924
1569.6000, -14.810
1569.8000, -14.692
1570.0000, -14.572
1570.2000, -14.458
1570.4000, -14.352
1570.6000, -14.242
1570.8000, -14.133
1571.0000, -14.032
1571.2000, -13.937
1571.4000, -13.843
1571.6000, -13.747
1571.8000, -13.663
1572.0000, -13.584
1572.2000, -13.500
1572.4000, -13.415
1572.6000, -13.336
1572.8000, -13.259
1573.0000, -13.173
1573.2000, -13.082
1573.4000, -12.995
1573.6000, -12.908
1573.8000, -12.809
1574.0000, -12.703
1574.2000, -12.601
1574.4000, -12.500
1574.6000, -12.391
1574.8000, -12.279
1575.0000, -12.173
1575.2000, -12.066
1575.4000, -11.954
1575.6000, -11.842
1575.8000, -11.739
1576.0000, -11.641
1576.2000, -11.536
1576.4000, -11.435
1576.6000, -11.342
1576.8000, -11.253
1577.0000, -11.155
1577.2000, -11.057
1577.4000, -10.966
1577.6000, -10.875
1577.8000, -10.776
1578.0000, -10.679
1578.2000, -10.587
1578.4000, -10.496
1578.6000, -10.400
1578.8000, -10.304
1579.0000, -10.216
1579.2000, -10.127
1579.4000, -10.033
1579.6000,  -9.941
1579.8000,  -9.861
1580.0000,  -9.783
1580.2000,  -9.702
1580.4000,  -9.630
1580.6000,  -9.570
1580.8000,  -9.515
1581.0000,  -9.461
1581.2000,  -9.415
1581.4000,  -9.388
1581.6000,  -9.368
1581.8000,  -9.353
1582.0000,  -9.352
1582.2000,  -9.367
1582.4000,  -9.394
1582.6000,  -9.425
1582.8000,  -9.470
1583.0000,  -9.535
1583.2000,  -9.610
1583.4000,  -9.693
1583.6000,  -9.791
1583.8000,  -9.912
1584.0000, -10.045
1584.2000, -10.187
1584.4000, -10.350
1584.6000, -10.541
1584.8000, -10.750
1585.0000, -10.978
1585.2000, -11.234
1585.4000, -11.523
1585.6000, -11.840
1585.8000, -12.183
1586.0000, -12.560
1586.2000, -12.980
1586.4000, -13.434
1586.6000, -13.922
1586.8000, -14.451
1587.0000, -15.027
1587.2000, -15.633
1587.4000, -16.253
1587.6000, -16.880
1587.8000, -17.489
1588.0000, -18.033
1588.2000, -18.455
1588.4000, -18.712
1588.6000, -18.762
1588.8000, -18.586
1589.0000, -18.197
1589.2000, -17.654
1589.4000, -17.022
1589.6000, -16.343
1589.8000, -15.652
1590.0000, -14.983
1590.2000, -14.351
1590.4000, -13.761
1590.6000, -13.212
1590.8000, -12.712
1591.0000, -12.268
1591.2000, -11.872
1591.4000, -11.518
1591.6000, -11.213
1591.8000, -10.961
1592.0000, -10.753
1592.2000, -10.584
1592.4000, -10.458
1592.6000, -10.381
1592.8000, -10.348
1593.0000, -10.354
1593.2000, -10.406
1593.4000, -10.512
1593.6000, -10.668
1593.8000, -10.872
1594.0000, -11.133
1594.2000, -11.458
1594.4000, -11.854
1594.6000, -12.317
1594.8000, -12.866
1595.0000, -13.513
1595.2000, -14.266
1595.4000, -15.135
1595.6000, -16.147
1595.8000, -17.334
1596.0000, -18.723
1596.2000, -20.344
1596.4000, -22.231
1596.6000, -24.306
1596.8000, -26.117
1597.0000, -26.585
1597.2000, -25.364
1597.4000, -23.478
1597.6000, -21.664
1597.8000, -20.103
1598.0000, -18.806
1598.2000, -17.736
1598.4000, -16.863
1598.6000, -16.146
1598.8000, -15.569
1599.0000, -15.123
1599.2000, -14.794
1599.4000, -14.568
1599.6000, -14.437
1599.8000, -14.407
1600.0000, -14.474
1600.2000, -14.630
1600.4000, -14.877
1600.6000, -15.226
1600.8000, -15.685
1601.0000, -16.254
1601.2000, -16.937
1601.4000, -17.758
1601.6000, -18.726
1601.8000, -19.843
1602.0000, -21.108
1602.2000, -22.496
1602.4000, -23.893
1602.6000, -25.015
1602.8000, -25.440
1603.0000, -24.994
1603.2000, -23.966
1603.4000, -22.748
1603.6000, -21.577
1603.8000, -20.555
1604.0000, -19.703
1604.2000, -19.009
1604.4000, -18.458
1604.6000, -18.047
1604.8000, -17.772
1605.0000, -17.621
1605.2000, -17.586
1605.4000, -17.668
1605.6000, -17.874
1605.8000, -18.195
1606.0000, -18.635
1606.2000, -19.200
1606.4000, -19.902
1606.6000, -20.744
1606.8000, -21.716
1607.0000, -22.807
1607.2000, -23.979
1607.4000, -25.109
1607.6000, -25.978
1607.8000, -26.352
1608.0000, -26.148
1608.2000, -25.504
1608.4000, -24.654
1608.6000, -23.786
1608.8000, -23.008
1609.0000, -22.365
1609.2000, -21.859
1609.4000, -21.494
1609.6000, -21.273
1609.8000, -21.191
1610.0000, -21.238
1610.2000, -21.406
1610.4000, -21.703
1610.6000, -22.128
1610.8000, -22.666
1611.0000, -23.304
1611.2000, -24.015
1611.4000, -24.757
1611.6000, -25.445
1611.8000, -25.967
1612.0000, -26.228
1612.2000, -26.181
1612.4000, -25.855
1612.6000, -25.345
1612.8000, -24.766
1613.0000, -24.214
1613.2000, -23.732
1613.4000, -23.348
1613.6000, -23.079
1613.8000, -22.939
1614.0000, -22.927
1614.2000, -23.039
1614.4000, -23.276
1614.6000, -23.640
1614.8000, -24.121
1615.0000, -24.697
1615.2000, -25.337
1615.4000, -25.997
1615.6000, -26.603
1615.8000, -27.068
1616.0000, -27.331
1616.2000, -27.381
1616.4000, -27.260
1616.6000, -27.035
1616.8000, -26.774
1617.0000, -26.542
1617.2000, -26.371
1617.4000, -26.270
1617.6000, -26.243
1617.8000, -26.285
1618.0000, -26.398
1618.2000, -26.567
1618.4000, -26.781
1618.6000, -27.033
1618.8000, -27.312
1619.0000, -27.594
1619.2000, -27.847
1619.4000, -28.047
1619.6000, -28.170
1619.8000, -28.202
1620.0000, -28.136
1620.2000, -27.993
1620.4000, -27.808
1620.6000, -27.613
1620.8000, -27.436
1621.0000, -27.296
1621.2000, -27.218
1621.4000, -27.218
1621.6000, -27.290
1621.8000, -27.433
1622.0000, -27.640
1622.2000, -27.901
1622.4000, -28.192
1622.6000, -28.483
1622.8000, -28.752
1623.0000, -28.981
1623.2000, -29.144
1623.4000, -29.236
1623.6000, -29.270
1623.8000, -29.269
1624.0000, -29.253
1624.2000, -29.239
1624.4000, -29.248
1624.6000, -29.300
1624.8000, -29.393
1625.0000, -29.525
1625.2000, -29.686
1625.4000, -29.869
1625.6000, -30.059
1625.8000, -30.232
1626.0000, -30.372
1626.2000, -30.471
1626.4000, -30.524
1626.6000, -30.533
1626.8000, -30.502
1627.0000, -30.452
1627.2000, -30.401
1627.4000, -30.364
1627.6000, -30.347
1627.8000, -30.362
1628.0000, -30.419
1628.2000, -30.511
1628.4000, -30.634
1628.6000, -30.780
1628.8000, -30.942
1629.0000, -31.109
1629.2000, -31.261
1629.4000, -31.388
1629.6000, -31.492
1629.8000, -31.573
1630.0000, -31.633
1630.2000, -31.677
1630.4000, -31.723
1630.6000, -31.788
1630.8000, -31.874
1631.0000, -31.982
1631.2000, -32.116
1631.4000, -32.275
1631.6000, -32.448
1631.8000, -32.614
1632.0000, -32.765
1632.2000, -32.893
1632.4000, -32.986
1632.6000, -33.041
1632.8000, -33.064
1633.0000, -33.072
1633.2000, -33.080
1633.4000, -33.096
1633.6000, -33.129
1633.8000, -33.190
1634.0000, -33.281
1634.2000, -33.391
1634.4000, -33.509
1634.6000, -33.625
1634.8000, -33.733
1635.0000, -33.819
1635.2000, -33.876
1635.4000, -33.910
1635.6000, -33.936
1635.8000, -33.962
1636.0000, -33.996
1636.2000, -34.046
1636.4000, -34.123
1636.6000, -34.229
1636.8000, -34.354
1637.0000, -34.488
1637.2000, -34.624
1637.4000, -34.755
1637.6000, -34.869
1637.8000, -34.959
1638.0000, -35.033
1638.2000, -35.098
1638.4000, -35.161
1638.6000, -35.226
1638.8000, -35.300
1639.0000, -35.395
1639.2000, -35.503
1639.4000, -35.618
1639.6000, -35.730
1639.8000, -35.838
1640.0000, -35.933
1640.2000, -36.007
1640.4000, -36.058
1640.6000, -36.093
1640.8000, -36.127
1641.0000, -36.163
1641.2000, -36.202
1641.4000, -36.257
1641.6000, -36.331
1641.8000, -36.419
1642.0000, -36.513
1642.2000, -36.606
1642.4000, -36.697
1642.6000, -36.785
1642.8000, -36.861
1643.0000, -36.928
1643.2000, -36.996
1643.4000, -37.075
1643.6000, -37.163
1643.8000, -37.261
1644.0000, -37.372
1644.2000, -37.495
1644.4000, -37.620
1644.6000, -37.736
1644.8000, -37.838
1645.0000, -37.931
1645.2000, -38.010
1645.4000, -38.075
1645.6000, -38.131
1645.8000, -38.191
1646.0000, -38.262
1646.2000, -38.334
1646.4000, -38.411
1646.6000, -38.490
1646.8000, -38.572
1647.0000, -38.648
1647.2000, -38.710
1647.4000, -38.764
1647.6000, -38.818
1647.8000, -38.876
1648.0000, -38.938
1648.2000, -39.007
1648.4000, -39.092
1648.6000, -39.192
1648.8000, -39.297
1649.0000, -39.402
1649.2000, -39.503
1649.4000, -39.605
1649.6000, -39.698
1649.8000, -39.783
1650.0000, -39.867
1650.2000, -39.958
1650.4000, -40.055
1650.6000, -40.154
1650.8000, -40.254
1651.0000, -40.355
1651.2000, -40.454
1651.4000, -40.542
1651.6000, -40.614
1651.8000, -40.677
1652.0000, -40.741
1652.2000, -40.802
1652.4000, -40.864
1652.6000, -40.931
1652.8000, -41.007
1653.0000, -41.089
1653.2000, -41.169
1653.4000, -41.242
1653.6000, -41.313
1653.8000, -41.386
1654.0000, -41.457
1654.2000, -41.528
1654.4000, -41.605
1654.6000, -41.696
1654.8000, -41.793
1655.0000, -41.893
1655.2000, -41.990
1655.4000, -42.086
1655.6000, -42.177
1655.8000, -42.263
1656.0000, -42.339
1656.2000, -42.416
1656.4000, -42.497
1656.6000, -42.579
1656.8000, -42.658
1657.0000, -42.739
1657.2000, -42.818
1657.4000, -42.890
1657.6000, -42.954
1657.8000, -43.010
1658.0000, -43.071
1658.2000, -43.134
1658.4000, -43.199
1658.6000, -43.269
1658.8000, -43.346
1659.0000, -43.431
1659.2000, -43.515
1659.4000, -43.592
1659.6000, -43.670
1659.8000, -43.750
1660.0000, -43.835
1660.2000, -43.922
1660.4000, -44.013
1660.6000, -44.108
1660.8000, -44.210
1661.0000, -44.306
1661.2000, -44.391
1661.4000, -44.471
1661.6000, -44.551
1661.8000, -44.629
1662.0000, -44.704
1662.2000, -44.780
1662.4000, -44.859
1662.6000, -44.943
1662.8000, -45.018
1663.0000, -45.090
1663.2000, -45.158
1663.4000, -45.230
1663.6000, -45.301
1663.8000, -45.375
1664.0000, -45.459
1664.2000, -45.547
1664.4000, -45.642
1664.6000, -45.730
1664.8000, -45.817
1665.0000, -45.908
1665.2000, -45.994
1665.4000, -46.080
1665.6000, -46.168
1665.8000, -46.259
1666.0000, -46.354
1666.2000, -46.445
1666.4000, -46.530
1666.6000, -46.608
1666.8000, -46.679
1667.0000, -46.752
1667.2000, -46.826
1667.4000, -46.895
1667.6000, -46.968
1667.8000, -47.047
1668.0000, -47.126
1668.2000, -47.193
1668.4000, -47.261
1668.6000, -47.333
1668.8000, -47.403
1669.0000, -47.476
1669.2000, -47.552
1669.4000, -47.638
1669.6000, -47.725
1669.8000, -47.809
1670.0000, -47.891
1670.2000, -47.961
1670.4000, -48.044
1670.6000, -48.124
1670.8000, -48.216
1671.0000, -48.288
1671.2000, -48.376
1671.4000, -48.448
1671.6000, -48.528
1671.8000, -48.593
1672.0000, -48.659
1672.2000, -48.730
1672.4000, -48.798
1672.6000, -48.871
1672.8000, -48.944
1673.0000, -49.016
1673.2000, -49.084
1673.4000, -49.162
1673.6000, -49.222
1673.8000, -49.295
1674.0000, -49.379
1674.2000, -49.461
1674.4000, -49.543
1674.6000, -49.618
1674.8000, -49.709
1675.0000, -49.796
1675.2000, -49.865
1675.4000, -49.960
1675.6000, -50.037
1675.8000, -50.132
1676.0000, -50.213
1676.2000, -50.301
1676.4000, -50.375
1676.6000, -50.441
1676.8000, -50.516
1677.0000, -50.608
1677.2000, -50.681
1677.4000, -50.758
1677.6000, -50.837
1677.8000, -50.913
1678.0000, -50.988
1678.2000, -51.058
1678.4000, -51.147
1678.6000, -51.229
1678.8000, -51.303
1679.0000, -51.389
1679.2000, -51.467
1679.4000, -51.543
1679.6000, -51.629
1679.8000, -51.704
1680.0000, -51.785
1680.2000, -51.868
1680.4000, -51.946
1680.6000, -52.013
1680.8000, -52.090
1681.0000, -52.153
1681.2000, -52.218
1681.4000, -52.300
1681.6000, -52.363
1681.8000, -52.427
1682.0000, -52.495
1682.2000, -52.577
1682.4000, -52.635
1682.6000, -52.704
1682.8000, -52.793
1683.0000, -52.870
1683.2000, -52.933
1683.4000, -53.025
1683.6000, -53.092
1683.8000, -53.174
1684.0000, -53.257
1684.2000, -53.321
1684.4000, -53.416
1684.6000, -53.466
1684.8000, -53.557
1685.0000, -53.617
1685.2000, -53.676
1685.4000, -53.746
1685.6000, -53.806
1685.8000, -53.872
1686.0000, -53.965
1686.2000, -54.037
1686.4000, -54.085
1686.6000, -54.153
1686.8000, -54.251
1687.0000, -54.315
1687.2000, -54.390
1687.4000, -54.471
1687.6000, -54.533
1687.8000, -54.616
1688.0000, -54.718
1688.2000, -54.772
1688.4000, -54.864
1688.6000, -54.940
1688.8000, -55.001
1689.0000, -55.066
1689.2000, -55.139
1689.4000, -55.226
1689.6000, -55.281
1689.8000, -55.398
1690.0000, -55.419
1690.2000, -55.488
1690.4000, -55.576
1690.6000, -55.644
1690.8000, -55.735
1691.0000, -55.788
1691.2000, -55.867
1691.4000, -55.935
1691.6000, -56.016
1691.8000, -56.078
1692.0000, -56.181
1692.2000, -56.228
1692.4000, -56.307
1692.6000, -56.382
1692.8000, -56.454
1693.0000, -56.517
1693.2000, -56.539
1693.4000, -56.624
1693.6000, -56.709
1693.8000, -56.760
1694.0000, -56.817
1694.2000, -56.924
1694.4000, -56.951
1694.6000, -57.013
1694.8000, -57.058
1695.0000, -57.127
1695.2000, -57.173
1695.4000, -57.293
1695.6000, -57.327
1695.8000, -57.395
1696.0000, -57.504
1696.2000, -57.539
1696.4000, -57.627
1696.6000, -57.708
1696.8000, -57.775
1697.0000, -57.828
1697.2000, -57.898
1697.4000, -57.962
1697.6000, -58.059
1697.8000, -58.057
1698.0000, -58.132
1698.2000, -58.251
1698.4000, -58.274
1698.6000, -58.337
1698.8000, -58.401
1699.0000, -58.485
1699.2000, -58.517
1699.4000, -58.532
1699.6000, -58.693
1699.8000, -58.718
1700.0000, -58.812
1700.2000, -58.803
1700.4000, -58.898
1700.6000, -58.911
1700.8000, -58.991
1701.0000, -59.052
1701.2000, -59.180
1701.4000, -59.216
1701.6000, -59.190
1701.8000, -59.262
1702.0000, -59.356
1702.2000, -59.399
1702.4000, -59.457
1702.6000, -59.509
1702.8000, -59.546
1703.0000, -59.656
1703.2000, -59.607
1703.4000, -59.769
1703.6000, -59.762
1703.8000, -59.808
1704.0000, -59.820
1704.2000, -60.018
1704.4000, -60.009
1704.6000, -60.049
1704.8000, -60.077
1705.0000, -60.143
1705.2000, -60.186
1705.4000, -60.203
1705.6000, -60.303
1705.8000, -60.328
1706.0000, -60.335
1706.2000, -60.351
1706.4000, -60.492
1706.6000, -60.530
1706.8000, -60.564
1707.0000, -60.651
1707.2000, -60.700
1707.4000, -60.745
1707.6000, -60.785
1707.8000, -60.787
1708.0000, -60.825
1708.2000, -60.870
1708.4000, -60.957
1708.6000, -61.015
1708.8000, -60.984
1709.0000, -61.083
1709.2000, -61.121
1709.4000, -61.207
1709.6000, -61.234
1709.8000, -61.173
1710.0000, -61.261
1710.2000, -61.221
1710.4000, -61.386
1710.6000, -61.457
1710.8000, -61.436
1711.0000, -61.382
1711.2000, -61.573
1711.4000, -61.464
1711.6000, -61.525
1711.8000, -61.624
1712.0000, -61.693
1712.2000, -61.722
1712.4000, -61.740
1712.6000, -61.803
1712.8000, -61.801
1713.0000, -61.941
1713.2000, -61.788
1713.4000, -61.843
1713.6000, -61.903
1713.8000, -61.930
1714.0000, -62.019
1714.2000, -62.075
1714.4000, -61.997
1714.6000, -61.988
1714.8000, -62.135
1715.0000, -62.117
1715.2000, -62.088
1715.4000, -62.200
1715.6000, -62.285
1715.8000, -62.228
1716.0000, -62.412
1716.2000, -62.351
1716.4000, -62.391
1716.6000, -62.403
1716.8000, -62.463
1717.0000, -62.565
1717.2000, -62.377
1717.4000, -62.672
1717.6000, -62.553
1717.8000, -62.491
1718.0000, -62.467
1718.2000, -62.799
1718.4000, -62.721
1718.6000, -62.651
1718.8000, -62.755
1719.0000, -62.730
1719.2000, -62.668
1719.4000, -62.850
1719.6000, -62.957
1719.8000, -62.921
1720.0000, -62.806
1720.2000, -62.895
1720.4000, -62.990
1720.6000, -62.999
1720.8000, -62.979
1721.0000, -63.004
1721.2000, -62.936
1721.4000, -63.011
1721.6000, -63.005
1721.8000, -63.066
1722.0000, -62.975
1722.2000, -63.003
1722.4000, -63.123
1722.6000, -63.024
1722.8000, -63.165
1723.0000, -63.155
1723.2000, -63.178
1723.4000, -63.008
1723.6000, -63.155
1723.8000, -63.184
1724.0000, -63.181
1724.2000, -63.072
1724.4000, -63.231
1724.6000, -63.253
1724.8000, -63.359
1725.0000, -63.208
1725.2000, -63.166
1725.4000, -63.202
1725.6000, -63.361
1725.8000, -63.195
1726.0000, -63.235
1726.2000, -63.154
1726.4000, -63.489
1726.6000, -63.288
1726.8000, -63.239
1727.0000, -63.328
1727.2000, -63.437
1727.4000, -63.303
1727.6000, -63.401
1727.8000, -63.350
1728.0000, -63.411
1728.2000, -63.390
1728.4000, -63.368
1728.6000, -63.369
1728.8000, -63.368
1729.0000, -63.496
1729.2000, -63.539
1729.4000, -63.371
1729.6000, -63.443
1729.8000, -63.446
1730.0000, -63.365
1730.2000, -63.343
1730.4000, -63.398
1730.6000, -63.365
1730.8000, -63.472
1731.0000, -63.452
1731.2000, -63.533
1731.4000, -63.434
1731.6000, -63.490
1731.8000, -63.546
1732.0000, -63.622
1732.2000, -63.381
1732.4000, -63.521
1732.6000, -63.517
1732.8000, -63.406
1733.0000, -63.527
1733.2000, -63.489
1733.4000, -63.636
1733.6000, -63.378
1733.8000, -63.551
1734.0000, -63.491
1734.2000, -63.506
1734.4000, -63.497
1734.6000, -63.376
1734.8000, -63.417
1735.0000, -63.520
1735.2000, -63.605
1735.4000, -63.569
1735.6000, -63.584
1735.8000, -63.424
1736.0000, -63.588
1736.2000, -63.431
1736.4000, -63.519
1736.6000, -63.512
1736.8000, -63.398
1737.0000, -63.554
1737.2000, -63.690
1737.4000, -63.478
1737.6000, -63.545
1737.8000, -63.538
1738.0000, -63.638
1738.2000, -63.459
1738.4000, -63.486
1738.6000, -63.566
1738.8000, -63.566
1739.0000, -63.678
1739.2000, -63.569
1739.4000, -63.483
1739.6000, -63.557
1739.8000, -63.560
1740.0000, -63.553
1740.2000, -63.598
1740.4000, -63.610
1740.6000, -63.402
1740.8000, -63.615
1741.0000, -63.558
1741.2000, -63.593
1741.4000, -63.619
1741.6000, -63.500
1741.8000, -63.638
1742.0000, -63.544
1742.2000, -63.532
1742.4000, -63.664
1742.6000, -63.679
1742.8000, -63.578
1743.0000, -63.531
1743.2000, -63.346
1743.4000, -63.491
1743.6000, -63.590
1743.8000, -63.652
1744.0000, -63.526
1744.2000, -63.594
1744.4000, -63.548
1744.6000, -63.496
1744.8000, -63.390
1745.0000, -63.488
1745.2000, -63.541
1745.4000, -63.438
1745.6000, -63.488
1745.8000, -63.565
1746.0000, -63.587
1746.2000, -63.519
1746.4000, -63.520
1746.6000, -63.463
1746.8000, -63.430
1747.0000, -63.467
1747.2000, -63.526
1747.4000, -63.367
1747.6000, -63.511
1747.8000, -63.595
1748.0000, -63.401
1748.2000, -63.494
1748.4000, -63.476
1748.6000, -63.561
1748.8000, -63.549
1749.0000, -63.503
1749.2000, -63.479
1749.4000, -63.437
1749.6000, -63.639
1749.8000, -63.511
1750.0000, -63.525
1750.2000, -63.459
1750.4000, -63.399
1750.6000, -63.564
1750.8000, -63.442
1751.0000, -63.548
1751.2000, -63.471
1751.4000, -63.585
1751.6000, -63.502
1751.8000, -63.686
1752.0000, -63.684
1752.2000, -63.549
1752.4000, -63.491
1752.6000, -63.489
1752.8000, -63.582
1753.0000, -63.595
1753.2000, -63.490
1753.4000, -63.720
1753.6000, -63.581
1753.8000, -63.605
1754.0000, -63.442
1754.2000, -63.568
1754.4000, -63.626
1754.6000, -63.631
1754.8000, -63.511
1755.0000, -63.380
1755.2000, -63.488
1755.4000, -63.491
1755.6000, -63.426
1755.8000, -63.455
1756.0000, -63.545
1756.2000, -63.377
1756.4000, -63.448
1756.6000, -63.458
1756.8000, -63.426
1757.0000, -63.365
1757.2000, -63.437
1757.4000, -63.452
1757.6000, -63.430
1757.8000, -63.382
1758.0000, -63.337
1758.2000, -63.465
1758.4000, -63.450
1758.6000, -63.405
1758.8000, -63.547
1759.0000, -63.338
1759.2000, -63.410
1759.4000, -63.441
1759.6000, -63.398
1759.8000, -63.330
1760.0000, -63.286
1760.2000, -63.193
1760.4000, -63.462
1760.6000, -63.298
1760.8000, -63.248
1761.0000, -63.204
1761.2000, -63.462
1761.4000, -63.382
1761.6000, -63.236
1761.8000, -63.190
1762.0000, -63.270
1762.2000, -63.147
1762.4000, -63.187
1762.6000, -63.228
1762.8000, -63.284
1763.0000, -63.198
1763.2000, -63.283
1763.4000, -62.965
1763.6000, -63.202
1763.8000, -63.086
1764.0000, -62.982
1764.2000, -63.024
1764.4000, -63.200
1764.6000, -63.002
1764.8000, -63.033
1765.0000, -62.955
1765.2000, -62.916
1765.4000, -62.815
1765.6000, -62.974
1765.8000, -62.885
1766.0000, -62.870
1766.2000, -62.879
1766.4000, -62.650
1766.6000, -62.784
1766.8000, -62.725
1767.0000, -62.730
1767.2000, -62.703
1767.4000, -62.705
1767.6000, -62.623
1767.8000, -62.723
1768.0000, -62.689
1768.2000, -62.564
1768.4000, -62.463
1768.6000, -62.510
1768.8000, -62.464
1769.0000, -62.617
1769.2000, -62.482
1769.4000, -62.495
1769.6000, -62.376
1769.8000, -62.397
1770.0000, -62.384
1770.2000, -62.356
1770.4000, -62.505
1770.6000, -62.251
1770.8000, -62.159
1771.0000, -62.178
1771.2000, -62.211
1771.4000, -62.115
1771.6000, -62.117
1771.8000, -62.198
1772.0000, -62.148
1772.2000, -62.117
1772.4000, -62.062
1772.6000, -62.136
1772.8000, -62.040
1773.0000, -61.924
1773.2000, -61.973
1773.4000, -61.944
1773.6000, -61.868
1773.8000, -61.872
1774.0000, -61.830
1774.2000, -61.857
1774.4000, -61.887
1774.6000, -61.988
1774.8000, -61.879
1775.0000, -61.860
1775.2000, -61.806
1775.4000, -61.787
1775.6000, -61.811
1775.8000, -61.785
1776.0000, -61.837
1776.2000, -61.731
1776.4000, -61.718
1776.6000, -61.782
1776.8000, -61.642
1777.0000, -61.766
1777.2000, -61.710
1777.4000, -61.669
1777.6000, -61.656
1777.8000, -61.603
1778.0000, -61.711
1778.2000, -61.704
1778.4000, -61.604
1778.6000, -61.595
1778.8000, -61.622
1779.0000, -61.586
1779.2000, -61.581
1779.4000, -61.498
1779.6000, -61.601
1779.8000, -61.464
1780.0000, -61.438
1780.2000, -61.527
1780.4000, -61.412
1780.6000, -61.456
1780.8000, -61.374
1781.0000, -61.374
1781.2000, -61.478
1781.4000, -61.386
1781.6000, -61.441
1781.8000, -61.359
1782.0000, -61.387
1782.2000, -61.442
1782.4000, -61.438
1782.6000, -61.377
1782.8000, -61.368
1783.0000, -61.287
1783.2000, -61.288
1783.4000, -61.268
1783.6000, -61.314
1783.8000, -61.254
1784.0000, -61.286
1784.2000, -61.285
1784.4000, -61.154
1784.6000, -61.173
1784.8000, -61.268
1785.0000, -61.194
1785.2000, -61.188
1785.4000, -61.134
1785.6000, -61.151
1785.8000, -61.127
1786.0000, -61.133
1786.2000, -61.243
1786.4000, -61.106
1786.6000, -61.123
1786.8000, -61.207
1787.0000, -61.198
1787.2000, -61.119
1787.4000, -61.109
1787.6000, -61.140
1787.8000, -61.170
1788.0000, -61.130
1788.2000, -61.107
1788.4000, -60.972
1788.6000, -61.117
1788.8000, -61.053
1789.0000, -61.111
1789.2000, -61.171
1789.4000, -61.142
1789.6000, -61.096
1789.8000, -61.077
1790.0000, -61.067
1790.2000, -61.102
1790.4000, -61.104
1790.6000, -61.130
1790.8000, -61.161
1791.0000, -61.076
1791.2000, -61.067
1791.4000, -61.005
1791.6000, -61.012
1791.8000, -61.094
1792.0000, -61.123
1792.2000, -61.108
1792.4000, -61.052
1792.6000, -61.104
1792.8000, -61.063
1793.0000, -61.174
1793.2000, -61.072
1793.4000, -61.174
1793.6000, -61.103
1793.8000, -61.113
1794.0000, -61.123
1794.2000, -61.100
1794.4000, -61.120
1794.6000, -61.088
1794.8000, -61.128
1795.0000, -61.077
1795.2000, -61.184
1795.4000, -61.133
1795.6000, -61.150
1795.8000, -60.991
1796.0000, -61.124
1796.2000, -61.105
1796.4000, -60.998
1796.6000, -61.169
1796.8000, -61.187
1797.0000, -61.139
1797.2000, -61.032
1797.4000, -61.055
1797.6000, -61.021
1797.8000, -61.006
1798.0000, -61.012
1798.2000, -61.059
1798.4000, -60.979
1798.6000, -60.988
1798.8000, -61.046
1799.0000, -61.026
1799.2000, -61.005
1799.4000, -60.971
1799.6000, -60.874
1799.8000, -60.906
1800.0000, -60.988
1800.2000, -60.953
1800.4000, -60.997
1800.6000, -60.958
1800.8000, -60.897
1801.0000, -60.842
1801.2000, -60.822
1801.4000, -60.885
1801.6000, -60.828
1801.8000, -60.801
1802.0000, -60.872
1802.2000, -60.866
1802.4000, -60.785
1802.6000, -60.851
1802.8000, -60.852
1803.0000, -60.862
1803.2000, -60.780
1803.4000, -60.884
1803.6000, -60.760
1803.8000, -60.837
1804.0000, -60.804
1804.2000, -60.799
1804.4000, -60.816
1804.6000, -60.775
1804.8000, -60.792
1805.0000, -60.788
1805.2000, -60.756
1805.4000, -60.776
1805.6000, -60.677
1805.8000, -60.760
1806.0000, -60.659
1806.2000, -60.767
1806.4000, -60.738
1806.6000, -60.731
1806.8000, -60.750
1807.0000, -60.764
1807.2000, -60.795
1807.4000, -60.705
1807.6000, -60.798
1807.8000, -60.732
1808.0000, -60.754
1808.2000, -60.763
1808.4000, -60.770
1808.6000, -60.787
1808.8000, -60.764
1809.0000, -60.794
1809.2000, -60.766
1809.4000, -60.777
1809.6000, -60.841
1809.8000, -60.871
1810.0000, -60.769
1810.2000, -60.818
1810.4000, -60.798
1810.6000, -60.838
1810.8000, -60.865
1811.0000, -60.865
1811.2000, -60.784
1811.4000, -60.851
1811.6000, -60.849
1811.8000, -60.831
1812.0000, -60.797
1812.2000, -60.929
1812.4000, -60.848
1812.6000, -60.846
1812.8000, -60.808
1813.0000, -60.820
1813.2000, -60.851
1813.4000, -60.838
1813.6000, -60.756
1813.8000, -60.821
1814.0000, -60.930
1814.2000, -60.887
1814.4000, -60.877
1814.6000, -60.910
1814.8000, -60.953
1815.0000, -60.958
1815.2000, -60.950
1815.4000, -60.927
1815.6000, -60.985
1815.8000, -60.977
1816.0000, -61.026
1816.2000, -60.989
1816.4000, -60.969
1816.6000, -60.937
1816.8000, -60.946
1817.0000, -60.881
1817.2000, -61.017
1817.4000, -60.987
1817.6000, -60.939
1817.8000, -60.973
1818.0000, -60.989
1818.2000, -60.884
1818.4000, -61.060
1818.6000, -61.005
1818.8000, -60.981
1819.0000, -60.982
1819.2000, -60.939
1819.4000, -61.038
1819.6000, -61.055
1819.8000, -61.079
1820.0000, -61.013
1820.2000, -61.064
1820.4000, -61.088
1820.6000, -61.010
1820.8000, -61.061
1821.0000, -61.096
1821.2000, -61.070
1821.4000, -61.031
1821.6000, -61.128
1821.8000, -61.113
1822.0000, -61.206
1822.2000, -61.186
1822.4000, -61.126
1822.6000, -61.161
1822.8000, -61.128
1823.0000, -61.086
1823.2000, -61.188
1823.4000, -61.183
1823.6000, -61.229
1823.8000, -61.122
1824.0000, -61.104
1824.2000, -61.123
1824.4000, -61.184
1824.6000, -61.167
1824.8000, -61.126
1825.0000, -61.172
1825.2000, -61.145
1825.4000, -61.154
1825.6000, -61.133
1825.8000, -61.113
1826.0000, -61.091
1826.2000, -61.170
1826.4000, -61.171
1826.6000, -61.159
1826.8000, -61.123
1827.0000, -61.107
1827.2000, -61.092
1827.4000, -61.135
1827.6000, -61.160
1827.8000, -61.102
1828.0000, -61.166
1828.2000, -61.085
1828.4000, -61.111
1828.6000, -61.112
1828.8000, -61.014
1829.0000, -61.177
1829.2000, -61.065
1829.4000, -61.102
1829.6000, -61.144
1829.8000, -61.056
1830.0000, -61.073
1830.2000, -61.158
1830.4000, -61.021
1830.6000, -61.051
1830.8000, -61.037
1831.0000, -61.103
1831.2000, -61.063
1831.4000, -60.946
1831.6000, -61.001
1831.8000, -61.019
1832.0000, -60.903
1832.2000, -60.992
1832.4000, -60.850
1832.6000, -60.919
1832.8000, -60.901
1833.0000, -60.977
1833.2000, -60.820
1833.4000, -60.851
1833.6000, -60.900
1833.8000, -60.780
1834.0000, -60.781
1834.2000, -60.769
1834.4000, -60.795
1834.6000, -60.788
1834.8000, -60.701
1835.0000, -60.661
1835.2000, -60.614
1835.4000, -60.611
1835.6000, -60.583
1835.8000, -60.601
1836.0000, -60.505
1836.2000, -60.518
1836.4000, -60.473
1836.6000, -60.422
1836.8000, -60.421
1837.0000, -60.344
1837.2000, -60.322
1837.4000, -60.306
1837.6000, -60.293
1837.8000, -60.286
1838.0000, -60.176
1838.2000, -60.144
1838.4000, -60.087
1838.6000, -60.101
1838.8000, -60.054
1839.0000, -60.022
1839.2000, -59.960
1839.4000, -59.942
1839.6000, -59.896
1839.8000, -59.931
1840.0000, -59.894
1840.2000, -59.859
1840.4000, -59.880
1840.6000, -59.765
1840.8000, -59.791
1841.0000, -59.737
1841.2000, -59.744
1841.4000, -59.702
1841.6000, -59.709
1841.8000, -59.661
1842.0000, -59.574
1842.2000, -59.649
1842.4000, -59.615
1842.6000, -59.594
1842.8000, -59.551
1843.0000, -59.584
1843.2000, -59.519
1843.4000, -59.507
1843.6000, -59.503
1843.8000, -59.486
1844.0000, -59.430
1844.2000, -59.410
1844.4000, -59.370
1844.6000, -59.388
1844.8000, -59.282
1845.0000, -59.267
1845.2000, -59.250
1845.4000, -59.216
1845.6000, -59.201
1845.8000, -59.184
1846.0000, -59.141
1846.2000, -59.095
1846.4000, -59.003
1846.6000, -59.020
1846.8000, -58.978
1847.0000, -58.940
1847.2000, -58.881
1847.4000, -58.869
1847.6000, -58.785
1847.8000, -58.746
1848.0000, -58.680
1848.2000, -58.692
1848.4000, -58.673
1848.6000, -58.626
1848.8000, -58.611
1849.0000, -58.547
1849.2000, -58.539
1849.4000, -58.469
1849.6000, -58.445
1849.8000, -58.455
1850.0000, -58.404
1850.2000, -58.352
1850.4000, -58.316
1850.6000, -58.303
1850.8000, -58.301
1851.0000, -58.246
1851.2000, -58.200
1851.4000, -58.211
1851.6000, -58.184
1851.8000, -58.187
1852.0000, -58.141
1852.2000, -58.137
1852.4000, -58.162
1852.6000, -58.134
1852.8000, -58.095
1853.0000, -58.081
1853.2000, -58.108
1853.4000, -58.064
1853.6000, -58.018
1853.8000, -58.041
1854.0000, -58.068
1854.2000, -58.034
1854.4000, -58.034
1854.6000, -57.966
1854.8000, -57.950
1855.0000, -57.934
1855.2000, -57.934
1855.4000, -57.905
1855.6000, -57.918
1855.8000, -57.885
1856.0000, -57.886
1856.2000, -57.808
1856.4000, -57.829
1856.6000, -57.753
1856.8000, -57.729
1857.0000, -57.711
1857.2000, -57.688
1857.4000, -57.700
1857.6000, -57.591
1857.8000, -57.580
1858.0000, -57.561
1858.2000, -57.507
1858.4000, -57.482
1858.6000, -57.438
1858.8000, -57.392
1859.0000, -57.342
1859.2000, -57.317
1859.4000, -57.266
1859.6000, -57.208
1859.8000, -57.216
1860.0000, -57.118
1860.2000, -57.056
1860.4000, -56.987
1860.6000, -56.906
1860.8000, -56.893
1861.0000, -56.796
1861.2000, -56.725
1861.4000, -56.683
1861.6000, -56.598
1861.8000, -56.529
1862.0000, -56.431
1862.2000, -56.357
1862.4000, -56.281
1862.6000, -56.188
1862.8000, -56.122
1863.0000, -56.057
1863.2000, -55.965
1863.4000, -55.900
1863.6000, -55.821
1863.8000, -55.740
1864.0000, -55.699
1864.2000, -55.603
1864.4000, -55.551
1864.6000, -55.482
1864.8000, -55.420
1865.0000, -55.341
1865.2000, -55.332
1865.4000, -55.236
1865.6000, -55.187
1865.8000, -55.142
1866.0000, -55.100
1866.2000, -55.021
1866.4000, -54.975
1866.6000, -54.938
1866.8000, -54.890
1867.0000, -54.828
1867.2000, -54.801
1867.4000, -54.735
1867.6000, -54.657
1867.8000, -54.615
1868.0000, -54.543
1868.2000, -54.496
1868.4000, -54.424
1868.6000, -54.359
1868.8000, -54.292
1869.0000, -54.255
1869.2000, -54.161
1869.4000, -54.103
1869.6000, -54.034
1869.8000, -53.950
1870.0000, -53.885
1870.2000, -53.820
1870.4000, -53.741
1870.6000, -53.657
1870.8000, -53.596
1871.0000, -53.521
1871.2000, -53.445
1871.4000, -53.373
1871.6000, -53.295
1871.8000, -53.218
1872.0000, -53.153
1872.2000, -53.066
1872.4000, -52.995
1872.6000, -52.923
1872.8000, -52.856
1873.0000, -52.773
1873.2000, -52.715
1873.4000, -52.635
1873.6000, -52.564
1873.8000, -52.510
1874.0000, -52.447
1874.2000, -52.379
1874.4000, -52.331
1874.6000, -52.290
1874.8000, -52.240
1875.0000, -52.191
1875.2000, -52.146
1875.4000, -52.118
1875.6000, -52.090
1875.8000, -52.051
1876.0000, -52.052
1876.2000, -52.025
1876.4000, -52.007
1876.6000, -51.994
1876.8000, -51.982
1877.0000, -51.987
1877.2000, -51.979
1877.4000, -51.978
1877.6000, -51.973
1877.8000, -51.970
1878.0000, -51.973
1878.2000, -51.973
1878.4000, -51.962
1878.6000, -51.962
1878.8000, -51.951
1879.0000, -51.941
1879.2000, -51.931
1879.4000, -51.926
1879.6000, -51.899
1879.8000, -51.889
1880.0000, -51.871
1880.2000, -51.851
1880.4000, -51.832
1880.6000, -51.804
1880.8000, -51.790
1881.0000, -51.766
1881.2000, -51.739
1881.4000, -51.728
1881.6000, -51.710
1881.8000, -51.690
1882.0000, -51.684
1882.2000, -51.684
1882.4000, -51.667
1882.6000, -51.669
1882.8000, -51.675
1883.0000, -51.689
1883.2000, -51.703
1883.4000, -51.716
1883.6000, -51.746
1883.8000, -51.758
1884.0000, -51.793
1884.2000, -51.827
1884.4000, -51.871
1884.6000, -51.921
1884.8000, -51.970
1885.0000, -52.021
1885.2000, -52.085
1885.4000, -52.147
1885.6000, -52.201
1885.8000, -52.299
1886.0000, -52.368
1886.2000, -52.438
1886.4000, -52.516
1886.6000, -52.614
1886.8000, -52.695
1887.0000, -52.802
1887.2000, -52.888
1887.4000, -52.976
1887.6000, -53.074
1887.8000, -53.163
1888.0000, -53.245
1888.2000, -53.329
1888.4000, -53.427
1888.6000, -53.506
1888.8000, -53.606
1889.0000, -53.662
1889.2000, -53.729
1889.4000, -53.793
1889.6000, -53.866
1889.8000, -53.920
1890.0000, -53.972
1890.2000, -54.027
1890.4000, -54.051
1890.6000, -54.080
1890.8000, -54.117
1891.0000, -54.129
1891.2000, -54.154
1891.4000, -54.163
1891.6000, -54.167
1891.8000, -54.152
1892.0000, -54.154
1892.2000, -54.151
1892.4000, -54.110
1892.6000, -54.108
1892.8000, -54.068
1893.0000, -54.052
1893.2000, -54.013
1893.4000, -53.979
1893.6000, -53.957
1893.8000, -53.920
1894.0000, -53.883
1894.2000, -53.833
1894.4000, -53.817
1894.6000, -53.761
1894.8000, -53.721
1895.0000, -53.667
1895.2000, -53.621
1895.4000, -53.551
1895.6000, -53.510
1895.8000, -53.452
1896.0000, -53.405
1896.2000, -53.366
1896.4000, -53.304
1896.6000, -53.246
1896.8000, -53.198
1897.0000, -53.149
1897.2000, -53.095
1897.4000, -53.037
1897.6000, -53.008
1897.8000, -52.961
1898.0000, -52.907
1898.2000, -52.852
1898.4000, -52.803
1898.6000, -52.749
1898.8000, -52.709
1899.0000, -52.672
1899.2000, -52.643
1899.4000, -52.600
1899.6000, -52.538
1899.8000, -52.505
1900.0000, -52.460
1900.2000, -52.429
1900.4000, -52.398
1900.6000, -52.359
1900.8000, -52.330
1901.0000, -52.302
1901.2000, -52.271
1901.4000, -52.245
1901.6000, -52.219
1901.8000, -52.203
1902.0000, -52.174
1902.2000, -52.155
1902.4000, -52.149
1902.6000, -52.136
1902.8000, -52.113
1903.0000, -52.106
1903.2000, -52.095
1903.4000, -52.079
1903.6000, -52.087
1903.8000, -52.074
1904.0000, -52.075
1904.2000, -52.063
1904.4000, -52.063
1904.6000, -52.069
1904.8000, -52.058
1905.0000, -52.054
1905.2000, -52.066
1905.4000, -52.053
1905.6000, -52.052
1905.8000, -52.058
1906.0000, -52.060
1906.2000, -52.048
1906.4000, -52.066
1906.6000, -52.057
1906.8000, -52.061
1907.0000, -52.057
1907.2000, -52.067
1907.4000, -52.067
1907.6000, -52.072
1907.8000, -52.091
1908.0000, -52.092
1908.2000, -52.112
1908.4000, -52.119
1908.6000, -52.129
1908.8000, -52.150
1909.0000, -52.164
1909.2000, -52.179
1909.4000, -52.211
1909.6000, -52.232
1909.8000, -52.272
1910.0000, -52.307
1910.2000, -52.345
1910.4000, -52.375
1910.6000, -52.427
1910.8000, -52.471
1911.0000, -52.524
1911.2000, -52.582
1911.4000, -52.635
1911.6000, -52.697
1911.8000, -52.760
1912.0000, -52.819
1912.2000, -52.895
1912.4000, -52.974
1912.6000, -53.039
1912.8000, -53.116
1913.0000, -53.173
1913.2000, -53.267
1913.4000, -53.336
1913.6000, -53.405
1913.8000, -53.474
1914.0000, -53.546
1914.2000, -53.612
1914.4000, -53.682
1914.6000, -53.756
1914.8000, -53.804
1915.0000, -53.855
1915.2000, -53.923
1915.4000, -53.987
1915.6000, -54.030
1915.8000, -54.090
1916.0000, -54.114
1916.2000, -54.147
1916.4000, -54.188
1916.6000, -54.248
1916.8000, -54.267
1917.0000, -54.293
1917.2000, -54.304
1917.4000, -54.326
1917.6000, -54.342
1917.8000, -54.363
1918.0000, -54.377
1918.2000, -54.398
1918.4000, -54.412
1918.6000, -54.414
1918.8000, -54.435
1919.0000, -54.459
1919.2000, -54.483
1919.4000, -54.499
1919.6000, -54.568
1919.8000, -54.589
1920.0000, -54.654
1920.2000, -54.711
1920.4000, -54.765
1920.6000, -54.838
1920.8000, -54.924
1921.0000, -55.023
1921.2000, -55.121
1921.4000, -55.237
1921.6000, -55.334
1921.8000, -55.458
1922.0000, -55.592
1922.2000, -55.722
1922.4000, -55.869
1922.6000, -55.988
1922.8000, -56.140
1923.0000, -56.255
1923.2000, -56.400
1923.4000, -56.520
1923.6000, -56.625
1923.8000, -56.740
1924.0000, -56.802
1924.2000, -56.881
1924.4000, -56.948
1924.6000, -56.985
1924.8000, -57.078
1925.0000, -57.121
1925.2000, -57.138
1925.4000, -57.155
1925.6000, -57.192
1925.8000, -57.237
1926.0000, -57.304
1926.2000, -57.310
1926.4000, -57.328
1926.6000, -57.415
1926.8000, -57.488
1927.0000, -57.566
1927.2000, -57.579
1927.4000, -57.680
1927.6000, -57.766
1927.8000, -57.870
1928.0000, -57.996
1928.2000, -58.119
1928.4000, -58.194
1928.6000, -58.279
1928.8000, -58.386
1929.0000, -58.517
1929.2000, -58.539
1929.4000, -58.637
1929.6000, -58.700
1929.8000, -58.685
1930.0000, -58.810
1930.2000, -58.856
1930.4000, -58.844
1930.6000, -58.928
1930.8000, -58.967
1931.0000, -58.967
1931.2000, -59.011
1931.4000, -59.057
1931.6000, -59.171
1931.8000, -59.200
1932.0000, -59.286
1932.2000, -59.379
1932.4000, -59.472
1932.6000, -59.459
1932.8000, -59.582
1933.0000, -59.650
1933.2000, -59.701
1933.4000, -59.835
1933.6000, -59.873
1933.8000, -59.982
1934.0000, -59.993
1934.2000, -60.041
1934.4000, -60.110
1934.6000, -60.171
1934.8000, -60.169
1935.0000, -60.282
1935.2000, -60.359
1935.4000, -60.402
1935.6000, -60.431
1935.8000, -60.480
1936.0000, -60.543
1936.2000, -60.545
1936.4000, -60.657
1936.6000, -60.694
1936.8000, -60.753
1937.0000, -60.844
1937.2000, -60.847
1937.4000, -60.826
1937.6000, -61.000
1937.8000, -61.090
1938.0000, -61.050
1938.2000, -61.173
1938.4000, -61.149
1938.6000, -61.148
1938.8000, -61.277
1939.0000, -61.366
1939.2000, -61.348
1939.4000, -61.450
1939.6000, -61.490
1939.8000, -61.448
1940.0000, -61.522
1940.2000, -61.609
1940.4000, -61.689
1940.6000, -61.661
1940.8000, -61.759
1941.0000, -61.789
1941.2000, -61.859
1941.4000, -61.994
1941.6000, -61.966
1941.8000, -61.966
1942.0000, -62.103
1942.2000, -62.051
1942.4000, -62.074
1942.6000, -62.165
1942.8000, -62.269
1943.0000, -62.262
1943.2000, -62.270
1943.4000, -62.421
1943.6000, -62.287
1943.8000, -62.405
1944.0000, -62.417
1944.2000, -62.420
1944.4000, -62.505
1944.6000, -62.461
1944.8000, -62.525
1945.0000, -62.545
1945.2000, -62.711
1945.4000, -62.641
1945.6000, -62.623
1945.8000, -62.764
1946.0000, -62.748
1946.2000, -62.865
1946.4000, -63.006
1946.6000, -62.894
1946.8000, -62.983
1947.0000, -62.979
1947.2000, -63.074
1947.4000, -63.028
1947.6000, -63.088
1947.8000, -63.094
1948.0000, -63.085
1948.2000, -63.202
1948.4000, -63.249
1948.6000, -63.307
1948.8000, -63.175
1949.0000, -63.365
1949.2000, -63.393
1949.4000, -63.410
1949.6000, -63.478
1949.8000, -63.427
1950.0000, -63.400
1950.2000, -63.433
1950.4000, -63.607
1950.6000, -63.540
1950.8000, -63.563
1951.0000, -63.695
1951.2000, -63.721
1951.4000, -63.454
1951.6000, -63.622
1951.8000, -63.685
1952.0000, -63.676
1952.2000, -63.709
1952.4000, -63.745
1952.6000, -63.813
1952.8000, -63.769
1953.0000, -63.690
1953.2000, -63.757
1953.4000, -63.792
1953.6000, -63.834
1953.8000, -63.916
1954.0000, -63.779
1954.2000, -63.891
1954.4000, -63.848
1954.6000, -63.989
1954.8000, -63.969
1955.0000, -64.022
1955.2000, -63.963
1955.4000, -64.135
1955.6000, -63.913
1955.8000, -63.952
1956.0000, -64.020
1956.2000, -64.015
1956.4000, -64.079
1956.6000, -64.072
1956.8000, -63.982
1957.0000, -63.994
1957.2000, -64.123
1957.4000, -64.014
1957.6000, -64.039
1957.8000, -64.009
1958.0000, -64.035
1958.2000, -64.190
1958.4000, -64.185
1958.6000, -64.390
1958.8000, -64.198
1959.0000, -64.129
1959.2000, -64.275
1959.4000, -64.268
1959.6000, -64.328
1959.8000, -64.340
1960.0000, -64.336
1960.2000, -64.273
1960.4000, -64.131
1960.6000, -64.229
1960.8000, -64.298
1961.0000, -64.256
1961.2000, -64.457
1961.4000, -64.237
1961.6000, -64.323
1961.8000, -64.354
1962.0000, -64.268
1962.2000, -64.244
1962.4000, -64.378
1962.6000, -64.430
1962.8000, -64.281
1963.0000, -64.453
1963.2000, -64.476
1963.4000, -64.538
1963.6000, -64.354
1963.8000, -64.396
1964.0000, -64.472
1964.2000, -64.311
1964.4000, -64.425
1964.6000, -64.323
1964.8000, -64.424
1965.0000, -64.382
1965.2000, -64.243
1965.4000, -64.377
1965.6000, -64.494
1965.8000, -64.607
1966.0000, -64.288
1966.2000, -64.549
1966.4000, -64.192
1966.6000, -64.341
1966.8000, -64.361
1967.0000, -64.108
1967.2000, -64.568
1967.4000, -64.406
1967.6000, -64.303
1967.8000, -64.396
1968.0000, -64.559
1968.2000, -64.309
1968.4000, -64.414
1968.6000, -64.220
1968.8000, -64.487
1969.0000, -64.405
1969.2000, -64.478
1969.4000, -64.405
1969.6000, -64.552
1969.8000, -64.681
1970.0000, -64.497
1970.2000, -64.544
1970.4000, -64.480
1970.6000, -64.487
1970.8000, -64.479
1971.0000, -64.408
1971.2000, -64.527
1971.4000, -64.472
1971.6000, -64.387
1971.8000, -64.530
1972.0000, -64.418
1972.2000, -64.436
1972.4000, -64.383
1972.6000, -64.490
1972.8000, -64.427
1973.0000, -64.452
1973.2000, -64.565
1973.4000, -64.593
1973.6000, -64.596
1973.8000, -64.517
1974.0000, -64.580
1974.2000, -64.317
1974.4000, -64.502
1974.6000, -64.428
1974.8000, -64.422
1975.0000, -64.448
1975.2000, -64.456
1975.4000, -64.426
1975.6000, -64.469
1975.8000, -64.466
1976.0000, -64.549
1976.2000, -64.488
1976.4000, -64.474
1976.6000, -64.318
1976.8000, -64.395
1977.0000, -64.390
1977.2000, -64.336
1977.4000, -64.693
1977.6000, -64.627
1977.8000, -64.488
1978.0000, -64.602
1978.2000, -64.355
1978.4000, -64.406
1978.6000, -64.578
1978.8000, -64.609
1979.0000, -64.456
1979.2000, -64.648
1979.4000, -64.606
1979.6000, -64.579
1979.8000, -64.581
1980.0000, -64.551
1980.2000, -64.673
1980.4000, -64.752
1980.6000, -64.690
1980.8000, -64.553
1981.0000, -64.670
1981.2000, -64.559
1981.4000, -64.575
1981.6000, -64.720
1981.8000, -64.523
1982.0000, -64.564
1982.2000, -64.588
1982.4000, -64.545
1982.6000, -64.639
1982.8000, -64.515
1983.0000, -64.532
1983.2000, -64.742
1983.4000, -64.572
1983.6000, -64.487
1983.8000, -64.326
1984.0000, -64.746
1984.2000, -64.578
1984.4000, -64.561
1984.6000, -64.486
1984.8000, -64.727
1985.0000, -64.605
1985.2000, -64.678
1985.4000, -64.647
1985.6000, -64.470
1985.8000, -64.844
1986.0000, -64.637
1986.2000, -64.742
1986.4000, -64.722
1986.6000, -64.665
1986.8000, -64.691
1987.0000, -64.682
1987.2000, -64.689
1987.4000, -64.655
1987.6000, -64.910
1987.8000, -64.554
1988.0000, -64.836
1988.2000, -64.693
1988.4000, -64.633
1988.6000, -64.665
1988.8000, -64.622
1989.0000, -64.704
1989.2000, -64.588
1989.4000, -64.839
1989.6000, -64.445
1989.8000, -64.645
1990.0000, -64.491
1990.2000, -64.739
1990.4000, -64.489
1990.6000, -64.783
1990.8000, -64.629
1991.0000, -64.612
1991.2000, -64.873
1991.4000, -64.717
1991.6000, -64.719
1991.8000, -64.812
1992.0000, -64.716
1992.2000, -64.749
1992.4000, -64.653
1992.6000, -64.791
1992.8000, -64.734
1993.0000, -64.751
1993.2000, -64.831
1993.4000, -64.679
1993.6000, -64.709
1993.8000, -64.561
1994.0000, -64.569
1994.2000, -64.601
1994.4000, -64.668
1994.6000, -64.709
1994.8000, -64.630
1995.0000, -64.760
1995.2000, -64.846
1995.4000, -64.868
1995.6000, -64.537
1995.8000, -64.652
1996.0000, -64.685
1996.2000, -64.742
1996.4000, -64.640
1996.6000, -64.655
1996.8000, -64.614
1997.0000, -64.591
1997.2000, -64.672
1997.4000, -64.820
1997.6000, -64.630
1997.8000, -64.603
1998.0000, -64.674
1998.2000, -64.659
1998.4000, -64.796
1998.6000, -64.701
1998.8000, -64.498
1999.0000, -64.479
1999.2000, -64.529
1999.4000, -64.768
1999.6000, -64.768
1999.8000, -64.759
2000.0000, -64.590
2000.2000, -64.678
2000.4000, -64.607
2000.6000, -64.557
2000.8000, -64.580
2001.0000, -64.685
2001.2000, -64.496
2001.4000, -64.673
2001.6000, -64.560
2001.8000, -64.590
2002.0000, -64.578
2002.2000, -64.618
2002.4000, -64.504
2002.6000, -64.618
2002.8000, -64.634
2003.0000, -64.559
2003.2000, -64.458
2003.4000, -64.501
2003.6000, -64.544
2003.8000, -64.603
2004.0000, -64.649
2004.2000, -64.696
2004.4000, -64.540
2004.6000, -64.498
2004.8000, -64.547
2005.0000, -64.721
2005.2000, -64.575
2005.4000, -64.588
2005.6000, -64.700
2005.8000, -64.574
2006.0000, -64.567
2006.2000, -64.605
2006.4000, -64.591
2006.6000, -64.420
2006.8000, -64.670
2007.0000, -64.548
2007.2000, -64.574
2007.4000, -64.473
2007.6000, -64.394
2007.8000, -64.703
2008.0000, -64.642
2008.2000, -64.579
2008.4000, -64.526
2008.6000, -64.627
2008.8000, -64.564
2009.0000, -64.541
2009.2000, -64.670
2009.4000, -64.549
2009.6000, -64.524
2009.8000, -64.542
2010.0000, -64.671
2010.2000, -64.532
2010.4000, -64.648
2010.6000, -64.598
2010.8000, -64.571
2011.0000, -64.490
2011.2000, -64.569
2011.4000, -64.544
2011.6000, -64.658
2011.8000, -64.507
2012.0000, -64.517
2012.2000, -64.894
2012.4000, -64.650
2012.6000, -64.547
2012.8000, -64.545
2013.0000, -64.725
2013.2000, -64.652
2013.4000, -64.663
2013.6000, -64.670
2013.8000, -64.546
2014.0000, -64.754
2014.2000, -64.711
2014.4000, -64.573
2014.6000, -64.825
2014.8000, -64.624
2015.0000, -64.726
2015.2000, -64.929
2015.4000, -64.693
2015.6000, -64.720
2015.8000, -64.612
2016.0000, -64.765
2016.2000, -64.643
2016.4000, -64.707
2016.6000, -64.719
2016.8000, -64.690
2017.0000, -64.884
2017.2000, -64.855
2017.4000, -64.699
2017.6000, -64.682
2017.8000, -64.738
2018.0000, -64.647
2018.2000, -64.704
2018.4000, -64.759
2018.6000, -64.817
2018.8000, -64.883
2019.0000, -64.643
2019.2000, -64.805
2019.4000, -64.679
2019.6000, -64.627
2019.8000, -64.757
2020.0000, -64.653
2020.2000, -64.750
2020.4000, -64.561
2020.6000, -64.700
2020.8000, -64.828
2021.0000, -64.629
2021.2000, -64.687
2021.4000, -64.865
2021.6000, -64.844
2021.8000, -64.686
2022.0000, -64.865
2022.2000, -64.867
2022.4000, -64.862
2022.6000, -64.677
2022.8000, -64.815
2023.0000, -64.760
2023.2000, -64.853
2023.4000, -64.704
2023.6000, -64.654
2023.8000, -64.578
2024.0000, -64.552
2024.2000, -64.708
2024.4000, -64.586
2024.6000, -64.717
2024.8000, -64.673
2025.0000, -64.530
2025.2000, -64.808
2025.4000, -64.655
2025.6000, -64.732
2025.8000, -64.761
2026.0000, -64.745
2026.2000, -64.589
2026.4000, -64.796
2026.6000, -64.621
2026.8000, -64.530
2027.0000, -64.586
2027.2000, -64.762
2027.4000, -64.599
2027.6000, -64.486
2027.8000, -64.527
2028.0000, -64.474
2028.2000, -64.575
2028.4000, -64.459
2028.6000, -64.412
2028.8000, -64.347
2029.0000, -64.298
2029.2000, -64.342
2029.4000, -64.289
2029.6000, -64.174
2029.8000, -64.243
2030.0000, -64.203
2030.2000, -64.174
2030.4000, -64.018
2030.6000, -64.082
2030.8000, -63.951
2031.0000, -63.887
2031.2000, -63.912
2031.4000, -63.843
2031.6000, -63.782
2031.8000, -63.760
2032.0000, -63.639
2032.2000, -63.613
2032.4000, -63.477
2032.6000, -63.574
2032.8000, -63.661
2033.0000, -63.429
2033.2000, -63.499
2033.4000, -63.434
2033.6000, -63.283
2033.8000, -63.158
2034.0000, -63.289
2034.2000, -63.319
2034.4000, -63.090
2034.6000, -63.150
2034.8000, -63.166
2035.0000, -63.142
2035.2000, -62.915
2035.4000, -62.820
2035.6000, -62.877
2035.8000, -62.766
2036.0000, -62.428
2036.2000, -62.570
2036.4000, -62.393
2036.6000, -62.273
2036.8000, -62.215
2037.0000, -62.157
2037.2000, -62.045
2037.4000, -61.928
2037.6000, -61.766
2037.8000, -61.689
2038.0000, -61.694
2038.2000, -61.549
2038.4000, -61.541
2038.6000, -61.421
2038.8000, -61.353
2039.0000, -61.280
2039.2000, -61.199
2039.4000, -61.162
2039.6000, -61.048
2039.8000, -60.957
2040.0000, -60.809
2040.2000, -60.648
2040.4000, -60.575
2040.6000, -60.443
2040.8000, -60.300
2041.0000, -60.111
2041.2000, -60.060
2041.4000, -59.885
2041.6000, -59.756
2041.8000, -59.634
2042.0000, -59.506
2042.2000, -59.487
2042.4000, -59.346
2042.6000, -59.320
2042.8000, -59.243
2043.0000, -59.214
2043.2000, -59.202
2043.4000, -59.202
2043.6000, -59.214
2043.8000, -59.308
2044.0000, -59.306
2044.2000, -59.353
2044.4000, -59.426
2044.6000, -59.502
2044.8000, -59.558
2045.0000, -59.653
2045.2000, -59.692
2045.4000, -59.866
2045.6000, -59.949
2045.8000, -59.906
2046.0000, -59.904
2046.2000, -59.934
2046.4000, -59.879
2046.6000, -59.802
2046.8000, -59.728
2047.0000, -59.563
2047.2000, -59.383
2047.4000, -59.168
2047.6000, -58.971
2047.8000, -58.787
2048.0000, -58.553
2048.2000, -58.296
2048.4000, -58.064
2048.6000, -57.858
2048.8000, -57.678
2049.0000, -57.382
2049.2000, -57.196
2049.4000, -57.038
2049.6000, -56.853
2049.8000, -56.707
2050.0000, -56.517
2050.2000, -56.427
2050.4000, -56.337
2050.6000, -56.273
2050.8000, -56.152
2051.0000, -56.117
2051.2000, -56.093
2051.4000, -56.041
2051.6000, -56.055
2051.8000, -56.077
2052.0000, -56.099
2052.2000, -56.139
2052.4000, -56.199
2052.6000, -56.277
2052.8000, -56.355
2053.0000, -56.480
2053.2000, -56.599
2053.4000, -56.715
2053.6000, -56.858
2053.8000, -57.001
2054.0000, -57.176
2054.2000, -57.332
2054.4000, -57.547
2054.6000, -57.750
2054.8000, -57.980
2055.0000, -58.158
2055.2000, -58.367
2055.4000, -58.638
2055.6000, -58.814
2055.8000, -59.051
2056.0000, -59.265
2056.2000, -59.502
2056.4000, -59.762
2056.6000, -60.015
2056.8000, -60.253
2057.0000, -60.458
2057.2000, -60.723
2057.4000, -60.908
2057.6000, -61.133
2057.8000, -61.336
2058.0000, -61.543
2058.2000, -61.741
2058.4000, -61.828
2058.6000, -61.909
2058.8000, -62.166
2059.0000, -62.149
2059.2000, -62.129
2059.4000, -62.257
2059.6000, -62.196
2059.8000, -62.244
2060.0000, -62.278
2060.2000, -62.146
2060.4000, -62.069
2060.6000, -62.199
2060.8000, -61.965
2061.0000, -62.017
2061.2000, -61.989
2061.4000, -61.832
2061.6000, -61.858
2061.8000, -61.622
2062.0000, -61.557
2062.2000, -61.428
2062.4000, -61.389
2062.6000, -61.150
2062.8000, -61.095
2063.0000, -60.963
2063.2000, -60.942
2063.4000, -60.888
2063.6000, -60.801
2063.8000, -60.652
2064.0000, -60.526
2064.2000, -60.528
2064.4000, -60.458
2064.6000, -60.314
2064.8000, -60.276
2065.0000, -60.191
2065.2000, -60.106
2065.4000, -59.978
2065.6000, -59.877
2065.8000, -59.794
2066.0000, -59.764
2066.2000, -59.637
2066.4000, -59.561
2066.6000, -59.479
2066.8000, -59.399
2067.0000, -59.279
2067.2000, -59.154
2067.4000, -59.136
2067.6000, -58.993
2067.8000, -58.965
2068.0000, -58.823
2068.2000, -58.725
2068.4000, -58.636
2068.6000, -58.573
2068.8000, -58.498
2069.0000, -58.422
2069.2000, -58.304
2069.4000, -58.266
2069.6000, -58.160
2069.8000, -58.089
2070.0000, -57.960
2070.2000, -57.910
2070.4000, -57.801
2070.6000, -57.741
2070.8000, -57.683
2071.0000, -57.543
2071.2000, -57.469
2071.4000, -57.404
2071.6000, -57.348
2071.8000, -57.245
2072.0000, -57.163
2072.2000, -57.108
2072.4000, -57.030
2072.6000, -56.983
2072.8000, -56.916
2073.0000, -56.881
2073.2000, -56.838
2073.4000, -56.760
2073.6000, -56.693
2073.8000, -56.671
2074.0000, -56.633
2074.2000, -56.569
2074.4000, -56.555
2074.6000, -56.558
2074.8000, -56.550
2075.0000, -56.508
2075.2000, -56.527
2075.4000, -56.526
2075.6000, -56.540
2075.8000, -56.544
2076.0000, -56.566
2076.2000, -56.607
2076.4000, -56.697
2076.6000, -56.763
2076.8000, -56.780
2077.0000, -56.843
2077.2000, -56.964
2077.4000, -57.016
2077.6000, -57.140
2077.8000, -57.264
2078.0000, -57.394
2078.2000, -57.506
2078.4000, -57.667
2078.6000, -57.841
2078.8000, -57.980
2079.0000, -58.194
2079.2000, -58.330
2079.4000, -58.510
2079.6000, -58.676
2079.8000, -58.799
2080.0000, -58.991
2080.2000, -59.196
2080.4000, -59.301
2080.6000, -59.475
2080.8000, -59.537
2081.0000, -59.729
2081.2000, -59.781
2081.4000, -59.858
2081.6000, -59.861
2081.8000, -59.812
2082.0000, -59.774
2082.2000, -59.734
2082.4000, -59.597
2082.6000, -59.427
2082.8000, -59.308
2083.0000, -59.159
2083.2000, -58.993
2083.4000, -58.810
2083.6000, -58.681
2083.8000, -58.593
2084.0000, -58.446
2084.2000, -58.363
2084.4000, -58.298
2084.6000, -58.203
2084.8000, -58.194
2085.0000, -58.170
2085.2000, -58.144
2085.4000, -58.211
2085.6000, -58.330
2085.8000, -58.411
2086.0000, -58.486
2086.2000, -58.693
2086.4000, -58.843
2086.6000, -59.085
2086.8000, -59.330
2087.0000, -59.570
2087.2000, -59.904
2087.4000, -60.270
2087.6000, -60.498
2087.8000, -60.848
2088.0000, -61.143
2088.2000, -61.478
2088.4000, -61.742
2088.6000, -61.742
2088.8000, -61.888
2089.0000, -62.064
2089.2000, -62.038
2089.4000, -62.011
2089.6000, -61.950
2089.8000, -61.835
2090.0000, -61.645
2090.2000, -61.559
2090.4000, -61.511
2090.6000, -61.395
2090.8000, -61.374
2091.0000, -61.286
2091.2000, -61.284
2091.4000, -61.314
2091.6000, -61.468
2091.8000, -61.608
2092.0000, -61.736
2092.2000, -62.002
2092.4000, -62.172
2092.6000, -62.422
2092.8000, -62.576
2093.0000, -62.834
2093.2000, -63.000
2093.4000, -63.187
2093.6000, -63.320
2093.8000, -63.232
2094.0000, -63.247
2094.2000, -63.374
2094.4000, -63.451
2094.6000, -63.363
2094.8000, -63.308
2095.0000, -63.309
2095.2000, -63.162
2095.4000, -63.164
2095.6000, -63.082
2095.8000, -63.048
2096.0000, -63.096
2096.2000, -63.177
2096.4000, -63.312
2096.6000, -63.430
2096.8000, -63.333
2097.0000, -63.750
2097.2000, -63.953
2097.4000, -64.036
2097.6000, -64.207
2097.8000, -64.263
2098.0000, -64.446
2098.2000, -64.311
2098.4000, -64.365
2098.6000, -64.405
2098.8000, -64.280
2099.0000, -64.496
2099.2000, -64.422
2099.4000, -64.296
2099.6000, -64.327
2099.8000, -64.218
2100.0000, -64.411
2100.2000, -64.221
2100.4000, -64.399
2100.6000, -64.524
2100.8000, -64.731
2101.0000, -64.796
2101.2000, -64.805
2101.4000, -64.742
2101.6000, -64.780
2101.8000, -64.889
2102.0000, -64.902
2102.2000, -64.866
2102.4000, -64.905
2102.6000, -64.638
2102.8000, -64.766
2103.0000, -64.818
2103.2000, -64.690
2103.4000, -64.745
2103.6000, -64.742
2103.8000, -64.649
2104.0000, -65.022
2104.2000, -64.800
2104.4000, -64.827
2104.6000, -65.048
2104.8000, -64.916
2105.0000, -65.125
2105.2000, -65.200
2105.4000, -65.315
2105.6000, -65.034
2105.8000, -65.193
2106.0000, -65.072
2106.2000, -65.322
2106.4000, -65.236
2106.6000, -65.104
2106.8000, -65.313
2107.0000, -65.098
2107.2000, -65.360
2107.4000, -65.298
2107.6000, -65.324
2107.8000, -65.267
2108.0000, -65.527
2108.2000, -65.253
2108.4000, -65.446
2108.6000, -65.413
2108.8000, -65.413
2109.0000, -65.346
2109.2000, -65.380
2109.4000, -65.302
2109.6000, -65.503
2109.8000, -65.560
2110.0000, -65.593
2110.2000, -65.549
2110.4000, -65.426
2110.6000, -65.307
2110.8000, -65.377
2111.0000, -65.412
2111.2000, -65.421
2111.4000, -65.572
2111.6000, -65.667
2111.8000, -65.370
2112.0000, -65.587
2112.2000, -65.653
2112.4000, -65.721
2112.6000, -65.567
2112.8000, -65.509
2113.0000, -65.637
2113.2000, -65.600
2113.4000, -65.496
2113.6000, -65.900
2113.8000, -65.706
2114.0000, -65.616
2114.2000, -65.652
2114.4000, -65.689
2114.6000, -65.605
2114.8000, -65.832
2115.0000, -65.784
2115.2000, -65.620
2115.4000, -65.596
2115.6000, -65.784
2115.8000, -65.777
2116.0000, -65.588
2116.2000, -65.695
2116.4000, -65.496
2116.6000, -65.788
2116.8000, -65.801
2117.0000, -65.571
2117.2000, -65.770
2117.4000, -65.998
2117.6000, -65.696
2117.8000, -65.664
2118.0000, -65.944
2118.2000, -66.098
2118.4000, -65.885
2118.6000, -65.877
2118.8000, -65.713
2119.0000, -65.825
2119.2000, -65.955
2119.4000, -66.053
2119.6000, -65.719
2119.8000, -66.005
2120.0000, -65.702
2120.2000, -65.800
2120.4000, -65.937
2120.6000, -65.921
2120.8000, -65.825
2121.0000, -65.761
2121.2000, -65.828
2121.4000, -65.818
2121.6000, -66.064
2121.8000, -66.009
2122.0000, -65.797
2122.2000, -66.108
2122.4000, -65.898
2122.6000, -65.908
2122.8000, -65.825
2123.0000, -65.908
2123.2000, -65.883
2123.4000, -65.974
2123.6000, -66.110
2123.8000, -65.818
2124.0000, -65.809
2124.2000, -65.905
2124.4000, -66.048
2124.6000, -65.899
2124.8000, -65.979
2125.0000, -66.177
2125.2000, -66.168
2125.4000, -66.004
2125.6000, -66.173
2125.8000, -66.159
2126.0000, -66.039
2126.2000, -65.937
2126.4000, -66.172
2126.6000, -65.935
2126.8000, -66.163
2127.0000, -66.155
2127.2000, -66.264
2127.4000, -66.193
2127.6000, -66.126
2127.8000, -65.885
2128.0000, -65.956
2128.2000, -66.152
2128.4000, -66.077
2128.6000, -66.294
2128.8000, -66.074
2129.0000, -66.083
2129.2000, -66.116
2129.4000, -66.249
2129.6000, -65.960
2129.8000, -66.248
2130.0000, -66.187
2130.2000, -66.189
2130.4000, -66.081
2130.6000, -66.064
2130.8000, -66.088
2131.0000, -65.994
2131.2000, -66.214
2131.4000, -65.859
2131.6000, -66.130
2131.8000, -66.118
2132.0000, -66.088
2132.2000, -65.923
2132.4000, -65.966
2132.6000, -66.093
2132.8000, -66.182
2133.0000, -65.838
2133.2000, -66.195
2133.4000, -66.077
2133.6000, -66.057
2133.8000, -66.085
2134.0000, -66.132
2134.2000, -66.231
2134.4000, -66.205
2134.6000, -66.396
2134.8000, -66.252
2135.0000, -65.975
2135.2000, -66.366
2135.4000, -66.385
2135.6000, -66.285
2135.8000, -66.205
2136.0000, -66.235
2136.2000, -66.105
2136.4000, -65.995
2136.6000, -66.190
2136.8000, -66.005
2137.0000, -66.145
2137.2000, -66.142
2137.4000, -65.934
2137.6000, -66.017
2137.8000, -66.277
2138.0000, -65.996
2138.2000, -66.114
2138.4000, -66.201
2138.6000, -66.270
2138.8000, -66.096
2139.0000, -66.129
2139.2000, -66.124
2139.4000, -66.119
2139.6000, -66.412
2139.8000, -66.083
2140.0000, -65.894
2140.2000, -66.025
2140.4000, -66.039
2140.6000, -66.048
2140.8000, -66.421
2141.0000, -66.201
2141.2000, -66.275
2141.4000, -66.314
2141.6000, -66.283
2141.8000, -66.229
2142.0000, -66.195
2142.2000, -66.049
2142.4000, -66.140
2142.6000, -66.198
2142.8000, -66.111
2143.0000, -66.199
2143.2000, -65.847
2143.4000, -66.330
2143.6000, -66.111
2143.8000, -66.094
2144.0000, -66.063
2144.2000, -66.162
2144.4000, -66.360
2144.6000, -66.158
2144.8000, -65.882
2145.0000, -66.011
2145.2000, -66.283
2145.4000, -66.151
2145.6000, -66.439
2145.8000, -66.410
2146.0000, -66.183
2146.2000, -65.873
2146.4000, -65.756
2146.6000, -66.287
2146.8000, -66.110
2147.0000, -65.930
2147.2000, -66.207
2147.4000, -65.991
2147.6000, -66.253
2147.8000, -66.248
2148.0000, -65.882
2148.2000, -66.180
2148.4000, -66.285
2148.6000, -66.159
2148.8000, -66.230
2149.0000, -66.141
2149.2000, -66.313
2149.4000, -65.941
2149.6000, -66.295
2149.8000, -66.094
2150.0000, -66.299
2150.2000, -65.847
2150.4000, -66.117
2150.6000, -66.403
2150.8000, -66.010
2151.0000, -66.174
2151.2000, -66.083
2151.4000, -66.334
2151.6000, -66.309
2151.8000, -65.984
2152.0000, -66.151
2152.2000, -66.120
2152.4000, -66.494
2152.6000, -65.946
2152.8000, -66.093
2153.0000, -66.019
2153.2000, -66.081
2153.4000, -66.022
2153.6000, -65.909
2153.8000, -66.160
2154.0000, -65.954
2154.2000, -66.180
2154.4000, -66.267
2154.6000, -66.164
2154.8000, -66.115
2155.0000, -66.053
2155.2000, -66.103
2155.4000, -65.974
2155.6000, -66.253
2155.8000, -66.131
2156.0000, -66.037
2156.2000, -66.135
2156.4000, -66.050
2156.6000, -66.210
2156.8000, -66.148
2157.0000, -66.115
2157.2000, -66.168
2157.4000, -66.148
2157.6000, -65.881
2157.8000, -65.995
2158.0000, -66.115
2158.2000, -65.928
2158.4000, -65.790
2158.6000, -66.106
2158.8000, -66.098
2159.0000, -65.956
2159.2000, -66.148
2159.4000, -65.960
2159.6000, -66.023
2159.8000, -65.939
2160.0000, -65.936
2160.2000, -66.056
2160.4000, -65.937
2160.6000, -65.985
2160.8000, -66.004
2161.0000, -66.020
2161.2000, -66.382
2161.4000, -66.007
2161.6000, -65.916
2161.8000, -65.880
2162.0000, -65.921
2162.2000, -65.948
2162.4000, -65.888
2162.6000, -65.889
2162.8000, -65.925
2163.0000, -66.005
2163.2000, -66.102
2163.4000, -65.930
2163.6000, -66.069
2163.8000, -66.045
2164.0000, -65.979
2164.2000, -66.230
2164.4000, -65.831
2164.6000, -65.959
2164.8000, -65.954
2165.0000, -65.992
2165.2000, -66.208
2165.4000, -66.081
2165.6000, -66.072
2165.8000, -65.742
2166.0000, -65.951
2166.2000, -65.876
2166.4000, -65.715
2166.6000, -66.022
2166.8000, -65.997
2167.0000, -66.137
2167.2000, -66.190
2167.4000, -66.192
2167.6000, -65.881
2167.8000, -65.858
2168.0000, -65.644
2168.2000, -65.944
2168.4000, -65.912
2168.6000, -65.960
2168.8000, -66.030
2169.0000, -66.101
2169.2000, -66.116
2169.4000, -66.113
2169.6000, -65.978
2169.8000, -65.938
2170.0000, -65.910
2170.2000, -66.012
2170.4000, -65.847
2170.6000, -66.228
2170.8000, -65.679
2171.0000, -65.908
2171.2000, -65.820
2171.4000, -65.878
2171.6000, -65.921
2171.8000, -65.709
2172.0000, -65.769
2172.2000, -65.896
2172.4000, -66.043
2172.6000, -65.955
2172.8000, -65.993
2173.0000, -66.022
2173.2000, -66.085
2173.4000, -66.123
2173.6000, -65.901
2173.8000, -66.108
2174.0000, -66.075
2174.2000, -65.789
2174.4000, -65.804
2174.6000, -65.824
2174.8000, -65.861
2175.0000, -65.964
2175.2000, -66.018
2175.4000, -65.795
2175.6000, -65.774
2175.8000, -65.762
2176.0000, -65.820
2176.2000, -65.793
2176.4000, -65.713
2176.6000, -65.998
2176.8000, -66.008
2177.0000, -65.803
2177.2000, -65.925
2177.4000, -65.915
2177.6000, -65.827
2177.8000, -65.719
2178.0000, -65.676
2178.2000, -65.913
2178.4000, -65.636
2178.6000, -65.978
2178.8000, -65.896
2179.0000, -65.813
2179.2000, -65.741
2179.4000, -65.949
2179.6000, -65.837
2179.8000, -65.735
2180.0000, -65.943
2180.2000, -65.941
2180.4000, -65.849
2180.6000, -66.037
2180.8000, -66.013
2181.0000, -65.763
2181.2000, -65.775
2181.4000, -65.714
2181.6000, -65.755
2181.8000, -66.017
2182.0000, -65.750
2182.2000, -65.889
2182.4000, -65.792
2182.6000, -65.717
2182.8000, -65.937
2183.0000, -65.826
2183.2000, -65.974
2183.4000, -65.868
2183.6000, -65.474
2183.8000, -65.916
2184.0000, -65.869
2184.2000, -65.784
2184.4000, -65.857
2184.6000, -65.789
2184.8000, -65.660
2185.0000, -65.931
2185.2000, -65.780
2185.4000, -65.940
2185.6000, -65.996
2185.8000, -65.559
2186.0000, -65.698
2186.2000, -65.974
2186.4000, -65.754
2186.6000, -65.701
2186.8000, -65.753
2187.0000, -65.677
2187.2000, -65.524
2187.4000, -65.675
2187.6000, -65.870
2187.8000, -65.918
2188.0000, -65.688
2188.2000, -65.661
2188.4000, -65.781
2188.6000, -66.059
2188.8000, -65.713
2189.0000, -65.896
2189.2000, -65.722
2189.4000, -65.606
2189.6000, -65.524
2189.8000, -65.822
2190.0000, -65.587
2190.2000, -65.862
2190.4000, -65.629
2190.6000, -65.657
2190.8000, -65.583
2191.0000, -65.815
2191.2000, -65.777
2191.4000, -65.623
2191.6000, -65.706
2191.8000, -65.699
2192.0000, -65.788
2192.2000, -65.676
2192.4000, -65.663
2192.6000, -65.864
2192.8000, -65.632
2193.0000, -65.582
2193.2000, -65.659
2193.4000, -65.621
2193.6000, -65.621
2193.8000, -65.689
2194.0000, -65.605
2194.2000, -65.515
2194.4000, -65.959
2194.6000, -65.807
2194.8000, -65.759
2195.0000, -65.778
2195.2000, -65.486
2195.4000, -65.541
2195.6000, -65.562
2195.8000, -65.694
2196.0000, -65.570
2196.2000, -65.359
2196.4000, -65.779
2196.6000, -65.335
2196.8000, -65.722
2197.0000, -65.331
2197.2000, -65.275
2197.4000, -65.523
2197.6000, -65.595
2197.8000, -65.592
2198.0000, -65.614
2198.2000, -65.672
2198.4000, -65.553
2198.6000, -65.606
2198.8000, -65.575
2199.0000, -65.438
2199.2000, -65.687
2199.4000, -65.597
2199.6000, -65.437
2199.8000, -65.746
2200.0000, -65.478
2200.2000, -65.526
2200.4000, -65.531
2200.6000, -65.466
2200.8000, -65.484
2201.0000, -65.658
2201.2000, -65.578
2201.4000, -65.942
2201.6000, -65.224
2201.8000, -65.534
2202.0000, -65.632
2202.2000, -65.451
2202.4000, -65.482
2202.6000, -65.588
2202.8000, -65.610
2203.0000, -65.359
2203.2000, -65.373
2203.4000, -65.498
2203.6000, -65.532
2203.8000, -65.766
2204.0000, -65.495
2204.2000, -65.356
2204.4000, -65.571
2204.6000, -65.526
2204.8000, -65.708
2205.0000, -65.584
2205.2000, -65.534
2205.4000, -65.129
2205.6000, -65.461
2205.8000, -65.282
2206.0000, -65.505
2206.2000, -65.432
2206.4000, -65.545
2206.6000, -65.372
2206.8000, -65.399
2207.0000, -65.291
2207.2000, -65.497
2207.4000, -65.472
2207.6000, -65.492
2207.8000, -65.606
2208.0000, -65.198
2208.2000, -65.685
2208.4000, -65.782
2208.6000, -65.753
2208.8000, -65.553
2209.0000, -65.657
2209.2000, -65.378
2209.4000, -65.493
2209.6000, -65.483
2209.8000, -65.557
2210.0000, -65.332
2210.2000, -65.503
2210.4000, -65.341
2210.6000, -65.525
2210.8000, -65.230
2211.0000, -65.375
2211.2000, -65.331
2211.4000, -65.431
2211.6000, -65.111
2211.8000, -65.349
2212.0000, -65.474
2212.2000, -65.330
2212.4000, -65.195
2212.6000, -65.327
2212.8000, -65.394
2213.0000, -65.529
2213.2000, -65.675
2213.4000, -65.433
2213.6000, -65.443
2213.8000, -65.608
2214.0000, -65.215
2214.2000, -65.693
2214.4000, -65.565
2214.6000, -65.675
2214.8000, -65.380
2215.0000, -65.396
2215.2000, -65.243
2215.4000, -65.304
2215.6000, -65.342
2215.8000, -65.464
2216.0000, -65.402
2216.2000, -65.543
2216.4000, -65.483
2216.6000, -65.321
2216.8000, -65.440
2217.0000, -65.561
2217.2000, -65.513
2217.4000, -65.269
2217.6000, -65.360
2217.8000, -65.493
2218.0000, -65.407
2218.2000, -65.302
2218.4000, -65.471
2218.6000, -65.547
2218.8000, -65.366
2219.0000, -65.471
2219.2000, -65.516
2219.4000, -65.440
2219.6000, -65.635
2219.8000, -65.516
2220.0000, -65.378
2220.2000, -70.653
2220.4000, -69.748
2220.6000, -68.817
2220.8000, -69.875
2221.0000, -69.506
2221.2000, -69.045
2221.4000, -70.112
2221.6000, -70.614
2221.8000, -70.565
2222.0000, -69.435
2222.2000, -69.309
2222.4000, -70.736
2222.6000, -70.794
2222.8000, -69.440
2223.0000, -70.156
2223.2000, -69.664
2223.4000, -70.146
2223.6000, -69.891
2223.8000, -69.873
2224.0000, -70.392
2224.2000, -70.270
2224.4000, -70.273
2224.6000, -70.333
2224.8000, -70.631
2225.0000, -69.660
2225.2000, -70.026
2225.4000, -68.671
2225.6000, -69.503
2225.8000, -69.755
2226.0000, -69.260
2226.2000, -70.920
2226.4000, -70.208
2226.6000, -69.715
2226.8000, -69.525
2227.0000, -70.163
2227.2000, -69.125
2227.4000, -70.061
2227.6000, -70.315
2227.8000, -69.535
2228.0000, -70.373
2228.2000, -69.463
2228.4000, -69.540
2228.6000, -69.741
2228.8000, -69.311
2229.0000, -70.149
2229.2000, -69.242
2229.4000, -69.431
2229.6000, -69.567
2229.8000, -69.475
2230.0000, -69.830
2230.2000, -69.877
2230.4000, -70.216
2230.6000, -69.274
2230.8000, -70.089
2231.0000, -69.704
2231.2000, -69.508
2231.4000, -69.323
2231.6000, -69.834
2231.8000, -69.053
2232.0000, -70.200
2232.2000, -69.455
2232.4000, -70.309
2232.6000, -70.317
2232.8000, -69.461
2233.0000, -69.923
2233.2000, -69.660
2233.4000, -70.277
2233.6000, -69.644
2233.8000, -70.093
2234.0000, -69.614
2234.2000, -69.578
2234.4000, -69.790
2234.6000, -69.525
2234.8000, -69.854
2235.0000, -69.147
2235.2000, -69.413
2235.4000, -69.615
2235.6000, -69.390
2235.8000, -70.684
2236.0000, -69.819
2236.2000, -69.458
2236.4000, -69.961
2236.6000, -70.702
2236.8000, -69.610
2237.0000, -69.180
2237.2000, -69.089
2237.4000, -69.335
2237.6000, -70.424
2237.8000, -70.340
2238.0000, -70.512
2238.2000, -69.748
2238.4000, -69.464
2238.6000, -70.648
2238.8000, -69.341
2239.0000, -69.983
2239.2000, -69.504
2239.4000, -69.577
2239.6000, -70.196
2239.8000, -69.897
2240.0000, -69.576
2240.2000, -69.482
2240.4000, -69.981
2240.6000, -69.765
2240.8000, -69.261
2241.0000, -69.483
2241.2000, -70.056
2241.4000, -69.502
2241.6000, -69.876
2241.8000, -69.581
2242.0000, -69.726
2242.2000, -69.967
2242.4000, -69.116
2242.6000, -69.724
2242.8000, -69.292
2243.0000, -69.898
2243.2000, -69.175
2243.4000, -69.757
2243.6000, -69.261
2243.8000, -69.326
2244.0000, -69.489
2244.2000, -69.634
2244.4000, -68.807
2244.6000, -69.939
2244.8000, -69.167
2245.0000, -69.679
2245.2000, -69.565
2245.4000, -69.922
2245.6000, -69.789
2245.8000, -69.243
2246.0000, -69.571
2246.2000, -69.017
2246.4000, -69.412
2246.6000, -69.776
2246.8000, -69.697
2247.0000, -69.967
2247.2000, -69.540
2247.4000, -68.745
2247.6000, -68.896
2247.8000, -70.633
2248.0000, -69.335
2248.2000, -69.637
2248.4000, -69.970
2248.6000, -70.483
2248.8000, -69.581
2249.0000, -69.737
2249.2000, -69.096
2249.4000, -70.029
2249.6000, -70.344
2249.8000, -69.439
2250.0000, -69.699
2250.2000, -69.699
2250.4000, -69.631
2250.6000, -69.825
2250.8000, -70.540
2251.0000, -69.231
2251.2000, -69.747
2251.4000, -68.743
2251.6000, -69.884
2251.8000, -69.882
2252.0000, -69.355
2252.2000, -70.155
2252.4000, -69.446
2252.6000, -69.491
2252.8000, -69.798
2253.0000, -69.610
2253.2000, -69.914
2253.4000, -70.136
2253.6000, -69.598
2253.8000, -69.452
2254.0000, -69.885
2254.2000, -69.382
2254.4000, -69.628
2254.6000, -70.126
2254.8000, -69.555
2255.0000, -69.832
2255.2000, -69.734
2255.4000, -69.609
2255.6000, -69.583
2255.8000, -69.406
2256.0000, -69.585
2256.2000, -69.544
2256.4000, -69.609
2256.6000, -69.147
2256.8000, -69.281
2257.0000, -68.996
2257.2000, -69.144
2257.4000, -70.234
2257.6000, -69.505
2257.8000, -70.003
2258.0000, -69.349
2258.2000, -70.165
2258.4000, -69.361
2258.6000, -69.859
2258.8000, -69.389
2259.0000, -68.542
2259.2000, -69.608
2259.4000, -69.402
2259.6000, -69.626
2259.8000, -69.998
2260.0000, -69.825
2260.2000, -69.391
2260.4000, -69.747
2260.6000, -69.540
2260.8000, -69.588
2261.0000, -70.141
2261.2000, -69.229
2261.4000, -69.733
2261.6000, -69.765
2261.8000, -68.594
2262.0000, -69.396
2262.2000, -69.134
2262.4000, -69.482
2262.6000, -69.628
2262.8000, -69.867
2263.0000, -69.607
2263.2000, -70.647
2263.4000, -70.917
2263.6000, -69.952
2263.8000, -69.367
2264.0000, -69.683
2264.2000, -70.029
2264.4000, -69.653
2264.6000, -69.701
2264.8000, -68.964
2265.0000, -69.521
2265.2000, -70.340
2265.4000, -69.555
2265.6000, -69.300
2265.8000, -69.866
2266.0000, -69.683
2266.2000, -69.722
2266.4000, -70.013
2266.6000, -69.870
2266.8000, -69.761
2267.0000, -69.361
2267.2000, -70.033
2267.4000, -69.946
2267.6000, -69.968
2267.8000, -70.104
2268.0000, -69.162
2268.2000, -70.251
2268.4000, -70.920
2268.6000, -69.486
2268.8000, -69.816
2269.0000, -70.262
2269.2000, -69.859
2269.4000, -69.191
2269.6000, -68.921
2269.8000, -70.312
2270.0000, -69.293
2270.2000, -69.385
2270.4000, -69.473
2270.6000, -70.203
2270.8000, -69.547
2271.0000, -69.993
2271.2000, -69.281
2271.4000, -69.265
2271.6000, -69.455
2271.8000, -69.119
2272.0000, -69.691
2272.2000, -69.931
2272.4000, -70.034
2272.6000, -70.007
2272.8000, -69.121
2273.0000, -69.680
2273.2000, -69.197
2273.4000, -69.330
2273.6000, -69.256
2273.8000, -69.641
2274.0000, -69.829
2274.2000, -69.865
2274.4000, -70.185
2274.6000, -68.941
2274.8000, -69.585
2275.0000, -69.756
2275.2000, -69.417
2275.4000, -69.910
2275.6000, -69.506
2275.8000, -69.411
2276.0000, -69.404
2276.2000, -69.630
2276.4000, -70.205
2276.6000, -69.454
2276.8000, -68.619
2277.0000, -69.833
2277.2000, -69.440
2277.4000, -68.993
2277.6000, -69.792
2277.8000, -69.771
2278.0000, -69.636
2278.2000, -70.302
2278.4000, -69.876
2278.6000, -69.961
2278.8000, -69.306
2279.0000, -69.647
2279.2000, -69.648
2279.4000, -69.799
2279.6000, -69.833
2279.8000, -69.576
2280.0000, -69.516
2280.2000, -69.793
2280.4000, -69.562
2280.6000, -69.176
2280.8000, -69.250
2281.0000, -70.338
2281.2000, -70.007
2281.4000, -69.526
2281.6000, -69.299
2281.8000, -68.577
2282.0000, -70.240
2282.2000, -69.541
2282.4000, -70.078
2282.6000, -69.041
2282.8000, -69.584
2283.0000, -69.188
2283.2000, -68.427
2283.4000, -69.935
2283.6000, -69.356
2283.8000, -69.783
2284.0000, -69.965
2284.2000, -69.852
2284.4000, -69.803
2284.6000, -70.422
2284.8000, -70.072
2285.0000, -69.695
2285.2000, -68.530
2285.4000, -69.781
2285.6000, -69.789
2285.8000, -68.645
2286.0000, -69.932
2286.2000, -70.127
2286.4000, -69.455
2286.6000, -69.605
2286.8000, -69.956
2287.0000, -70.340
2287.2000, -70.347
2287.4000, -70.017
2287.6000, -69.638
2287.8000, -69.660
2288.0000, -69.417
2288.2000, -70.417
2288.4000, -69.699
2288.6000, -70.358
2288.8000, -70.087
2289.0000, -69.602
2289.2000, -70.043
2289.4000, -69.787
2289.6000, -69.272
2289.8000, -70.213
2290.0000, -69.215
2290.2000, -69.447
2290.4000, -70.047
2290.6000, -69.331
2290.8000, -69.356
2291.0000, -69.876
2291.2000, -69.472
2291.4000, -69.359
2291.6000, -70.073
2291.8000, -69.097
2292.0000, -69.963
2292.2000, -69.447
2292.4000, -69.581
2292.6000, -69.160
2292.8000, -68.948
2293.0000, -68.937
2293.2000, -69.447
2293.4000, -70.475
2293.6000, -69.948
2293.8000, -69.235
2294.0000, -69.741
2294.2000, -69.424
2294.4000, -69.945
2294.6000, -69.112
2294.8000, -69.217
2295.0000, -69.471
2295.2000, -69.110
2295.4000, -69.296
2295.6000, -69.957
2295.8000, -70.095
2296.0000, -69.709
2296.2000, -70.188
2296.4000, -68.783
2296.6000, -69.599
2296.8000, -69.923
2297.0000, -69.643
2297.2000, -70.039
2297.4000, -69.262
2297.6000, -70.116
2297.8000, -69.164
2298.0000, -69.559
2298.2000, -69.920
2298.4000, -69.624
2298.6000, -68.848
2298.8000, -70.034
2299.0000, -69.503
2299.2000, -69.594
2299.4000, -69.119
2299.6000, -69.698
2299.8000, -69.631
2300.0000, -70.249
2300.2000, -69.332
2300.4000, -69.302
2300.6000, -69.107
2300.8000, -69.316
2301.0000, -69.563
2301.2000, -69.139
2301.4000, -69.497
2301.6000, -69.915
2301.8000, -69.614
2302.0000, -71.003
2302.2000, -69.231
2302.4000, -69.586
2302.6000, -71.217
2302.8000, -69.447
2303.0000, -69.210
2303.2000, -69.686
2303.4000, -69.543
2303.6000, -70.497
2303.8000, -69.457
2304.0000, -69.552
2304.2000, -69.224
2304.4000, -68.923
2304.6000, -69.162
2304.8000, -69.795
2305.0000, -69.319
2305.2000, -70.126
2305.4000, -70.072
2305.6000, -69.210
2305.8000, -69.051
2306.0000, -69.795
2306.2000, -69.103
2306.4000, -68.931
2306.6000, -69.832
2306.8000, -70.432
2307.0000, -70.410
2307.2000, -69.253
2307.4000, -69.528
2307.6000, -70.173
2307.8000, -69.085
2308.0000, -69.509
2308.2000, -69.511
2308.4000, -69.786
2308.6000, -69.364
2308.8000, -70.103
2309.0000, -69.354
2309.2000, -68.873
2309.4000, -69.442
2309.6000, -69.917
2309.8000, -69.607
2310.0000, -69.237
2310.2000, -69.555
2310.4000, -69.317
2310.6000, -69.556
2310.8000, -69.151
2311.0000, -69.569
2311.2000, -69.193
2311.4000, -69.658
2311.6000, -69.351
2311.8000, -69.678
2312.0000, -68.978
2312.2000, -69.037
2312.4000, -68.955
2312.6000, -69.736
2312.8000, -69.582
2313.0000, -69.273
2313.2000, -69.282
2313.4000, -69.784
2313.6000, -69.433
2313.8000, -69.323
2314.0000, -70.008
2314.2000, -68.932
2314.4000, -69.458
2314.6000, -70.163
2314.8000, -69.318
2315.0000, -69.495
2315.2000, -70.231
2315.4000, -69.628
2315.6000, -69.665
2315.8000, -69.372
2316.0000, -69.458
2316.2000, -69.900
2316.4000, -69.070
2316.6000, -70.133
2316.8000, -70.252
2317.0000, -69.839
2317.2000, -70.359
2317.4000, -68.816
2317.6000, -69.526
2317.8000, -69.288
2318.0000, -70.152
2318.2000, -69.710
2318.4000, -69.330
2318.6000, -69.853
2318.8000, -70.718
2319.0000, -69.907
2319.2000, -70.297
2319.4000, -70.199
2319.6000, -69.664
2319.8000, -69.553
2320.0000, -69.507
2320.2000, -68.902
2320.4000, -69.299
2320.6000, -70.007
2320.8000, -69.370
2321.0000, -69.690
2321.2000, -69.450
2321.4000, -69.632
2321.6000, -69.395
2321.8000, -69.944
2322.0000, -69.122
2322.2000, -69.622
2322.4000, -69.502
2322.6000, -69.692
2322.8000, -70.106
2323.0000, -69.650
2323.2000, -69.364
2323.4000, -69.763
2323.6000, -70.037
2323.8000, -69.869
2324.0000, -69.469
2324.2000, -69.668
2324.4000, -70.059
2324.6000, -69.941
2324.8000, -69.396
2325.0000, -70.201
2325.2000, -70.592
2325.4000, -69.203
2325.6000, -70.517
2325.8000, -69.451
2326.0000, -69.970
2326.2000, -69.809
2326.4000, -69.785
2326.6000, -69.970
2326.8000, -69.768
2327.0000, -69.605
2327.2000, -69.939
2327.4000, -69.621
2327.6000, -69.546
2327.8000, -69.567
2328.0000, -69.325
2328.2000, -69.598
2328.4000, -69.963
2328.6000, -69.022
2328.8000, -70.833
2329.0000, -69.402
2329.2000, -70.026
2329.4000, -69.425
2329.6000, -68.991
2329.8000, -70.765
2330.0000, -69.371
2330.2000, -69.457
2330.4000, -69.187
2330.6000, -70.386
2330.8000, -69.166
2331.0000, -69.978
2331.2000, -69.369
2331.4000, -68.945
2331.6000, -69.180
2331.8000, -68.788
2332.0000, -69.396
2332.2000, -69.791
2332.4000, -69.024
2332.6000, -69.509
2332.8000, -70.228
2333.0000, -69.421
2333.2000, -69.776
2333.4000, -69.492
2333.6000, -69.513
2333.8000, -69.813
2334.0000, -70.010
2334.2000, -69.783
2334.4000, -69.496
2334.6000, -69.258
2334.8000, -69.352
2335.0000, -69.756
2335.2000, -69.900
2335.4000, -70.020
2335.6000, -69.640
2335.8000, -68.744
2336.0000, -69.946
2336.2000, -69.695
2336.4000, -68.563
2336.6000, -69.564
2336.8000, -69.806
2337.0000, -69.084
2337.2000, -69.906
2337.4000, -70.372
2337.6000, -68.928
2337.8000, -69.280
2338.0000, -70.265
2338.2000, -69.970
2338.4000, -70.495
2338.6000, -70.066
2338.8000, -69.512
2339.0000, -70.481
2339.2000, -70.014
2339.4000, -68.982
2339.6000, -69.809
2339.8000, -69.186
2340.0000, -69.610
2340.2000, -70.624
2340.4000, -69.397
2340.6000, -70.545
2340.8000, -68.986
2341.0000, -69.396
2341.2000, -70.040
2341.4000, -69.921
2341.6000, -69.172
2341.8000, -69.761
2342.0000, -69.374
2342.2000, -69.637
2342.4000, -69.590
2342.6000, -70.438
2342.8000, -69.003
2343.0000, -69.244
2343.2000, -68.800
2343.4000, -69.026
2343.6000, -70.071
2343.8000, -69.567
2344.0000, -69.310
2344.2000, -69.751
2344.4000, -69.459
2344.6000, -70.781
2344.8000, -69.573
2345.0000, -68.841
2345.2000, -69.694
2345.4000, -69.263
2345.6000, -68.934
2345.8000, -69.117
2346.0000, -69.327
2346.2000, -70.274
2346.4000, -68.476
2346.6000, -69.582
2346.8000, -69.738
2347.0000, -70.233
2347.2000, -70.026
2347.4000, -69.025
2347.6000, -69.433
2347.8000, -68.814
2348.0000, -70.302
2348.2000, -69.416
2348.4000, -69.008
2348.6000, -69.958
2348.8000, -70.120
2349.0000, -69.715
2349.2000, -69.793
2349.4000, -70.010
2349.6000, -69.665
2349.8000, -68.681
2350.0000, -68.524
2350.2000, -69.618
2350.4000, -69.882
2350.6000, -69.246
2350.8000, -69.397
2351.0000, -69.388
2351.2000, -69.699
2351.4000, -69.337
2351.6000, -69.847
2351.8000, -70.090
2352.0000, -69.788
2352.2000, -69.697
2352.4000, -70.231
2352.6000, -69.732
2352.8000, -69.627
2353.0000, -70.081
2353.2000, -69.839
2353.4000, -70.017
2353.6000, -71.734
2353.8000, -69.532
2354.0000, -69.487
2354.2000, -70.352
2354.4000, -69.582
2354.6000, -69.618
2354.8000, -69.581
2355.0000, -69.895
2355.2000, -69.514
2355.4000, -69.089
2355.6000, -69.173
2355.8000, -68.862
2356.0000, -70.517
2356.2000, -70.252
2356.4000, -69.312
2356.6000, -69.370
2356.8000, -69.934
2357.0000, -70.548
2357.2000, -69.040
2357.4000, -70.210
2357.6000, -69.094
2357.8000, -69.534
2358.0000, -69.648
2358.2000, -69.778
2358.4000, -69.285
2358.6000, -69.362
2358.8000, -70.200
2359.0000, -69.817
2359.2000, -69.390
2359.4000, -69.946
2359.6000, -69.246
2359.8000, -69.009
2360.0000, -69.817
2360.2000, -68.689
2360.4000, -69.096
2360.6000, -69.576
2360.8000, -69.434
2361.0000, -69.388
2361.2000, -69.202
2361.4000, -69.570
2361.6000, -69.010
2361.8000, -69.333
2362.0000, -69.118
2362.2000, -69.646
2362.4000, -69.727
2362.6000, -69.732
2362.8000, -70.196
2363.0000, -70.315
2363.2000, -70.866
2363.4000, -69.603
2363.6000, -69.275
2363.8000, -69.551
2364.0000, -69.566
2364.2000, -68.730
2364.4000, -70.197
2364.6000, -69.140
2364.8000, -69.590
2365.0000, -69.102
2365.2000, -69.102
2365.4000, -69.207
2365.6000, -69.847
2365.8000, -69.295
2366.0000, -69.189
2366.2000, -69.053
2366.4000, -70.288
2366.6000, -69.269
2366.8000, -69.283
2367.0000, -69.770
2367.2000, -69.621
2367.4000, -69.890
2367.6000, -68.509
2367.8000, -68.472
2368.0000, -68.893
2368.2000, -69.963
2368.4000, -69.226
2368.6000, -69.873
2368.8000, -69.635
2369.0000, -69.625
2369.2000, -69.179
2369.4000, -70.108
2369.6000, -69.481
2369.8000, -69.635
2370.0000, -69.270
2370.2000, -69.287
2370.4000, -70.728
2370.6000, -68.827
2370.8000, -69.411
2371.0000, -69.384
2371.2000, -69.057
2371.4000, -69.824
2371.6000, -69.316
2371.8000, -69.371
2372.0000, -69.350
2372.2000, -69.598
2372.4000, -69.535
2372.6000, -69.293
2372.8000, -69.339
2373.0000, -68.804
2373.2000, -70.149
2373.4000, -68.927
2373.6000, -68.242
2373.8000, -69.568
2374.0000, -69.604
2374.2000, -70.050
2374.4000, -69.424
2374.6000, -69.056
2374.8000, -68.927
2375.0000, -68.819
2375.2000, -69.746
2375.4000, -69.881
2375.6000, -68.754
2375.8000, -69.561
2376.0000, -69.338
2376.2000, -68.114
2376.4000, -68.974
2376.6000, -68.946
2376.8000, -68.862
2377.0000, -69.161
2377.2000, -69.479
2377.4000, -69.163
2377.6000, -68.898
2377.8000, -70.352
2378.0000, -69.903
2378.2000, -69.586
2378.4000, -68.737
2378.6000, -69.504
2378.8000, -68.220
2379.0000, -69.828
2379.2000, -69.533
2379.4000, -68.496
2379.6000, -70.294
2379.8000, -69.663
2380.0000, -68.916
2380.2000, -69.743
2380.4000, -69.396
2380.6000, -68.822
2380.8000, -69.015
2381.0000, -68.555
2381.2000, -68.959
2381.4000, -69.152
2381.6000, -69.833
2381.8000, -68.825
2382.0000, -68.643
2382.2000, -68.673
2382.4000, -69.355
2382.6000, -69.831
2382.8000, -69.054
2383.0000, -68.894
2383.2000, -69.865
2383.4000, -70.015
2383.6000, -69.513
2383.8000, -69.771
2384.0000, -68.792
2384.2000, -69.353
2384.4000, -69.633
2384.6000, -69.333
2384.8000, -70.528
2385.0000, -69.471
2385.2000, -68.585
2385.4000, -68.710
2385.6000, -69.563
2385.8000, -70.055
2386.0000, -69.002
2386.2000, -70.730
2386.4000, -69.263
2386.6000, -69.415
2386.8000, -68.778
2387.0000, -69.455
2387.2000, -69.118
2387.4000, -70.094
2387.6000, -68.950
2387.8000, -69.812
2388.0000, -69.250
2388.2000, -69.442
2388.4000, -69.261
2388.6000, -69.924
2388.8000, -68.996
2389.0000, -69.169
2389.2000, -69.780
2389.4000, -69.107
2389.6000, -69.334
2389.8000, -68.919
2390.0000, -69.665
2390.2000, -69.532
2390.4000, -69.806
2390.6000, -68.983
2390.8000, -69.037
2391.0000, -68.351
2391.2000, -68.410
2391.4000, -69.210
2391.6000, -68.915
2391.8000, -68.679
2392.0000, -68.762
2392.2000, -69.371
2392.4000, -69.171
2392.6000, -69.381
2392.8000, -69.344
2393.0000, -68.670
2393.2000, -68.447
2393.4000, -69.453
2393.6000, -69.463
2393.8000, -68.953
2394.0000, -68.822
2394.2000, -69.602
2394.4000, -68.379
2394.6000, -69.408
2394.8000, -68.982
2395.0000, -69.367
2395.2000, -69.246
2395.4000, -68.700
2395.6000, -68.766
2395.8000, -69.128
2396.0000, -69.664
2396.2000, -69.679
2396.4000, -69.733
2396.6000, -68.574
2396.8000, -68.963
2397.0000, -69.591
2397.2000, -68.648
2397.4000, -69.123
2397.6000, -69.295
2397.8000, -68.982
2398.0000, -69.588
2398.2000, -69.147
2398.4000, -69.507
2398.6000, -69.654
2398.8000, -69.262
2399.0000, -69.298
2399.2000, -68.884
2399.4000, -68.250
2399.6000, -69.083
2399.8000, -69.172
2400.0000, -69.562
2400.2000, -69.458
2400.4000, -69.060
2400.6000, -69.679
2400.8000, -68.671
2401.0000, -68.880
2401.2000, -69.928
2401.4000, -69.435
2401.6000, -69.375
2401.8000, -69.109
2402.0000, -68.744
2402.2000, -68.816
2402.4000, -69.230
2402.6000, -68.727
2402.8000, -69.168
2403.0000, -68.964
2403.2000, -69.575
2403.4000, -69.177
2403.6000, -69.185
2403.8000, -68.395
2404.0000, -68.801
2404.2000, -68.910
2404.4000, -68.942
2404.6000, -70.200
2404.8000, -69.485
2405.0000, -68.232
2405.2000, -69.071
2405.4000, -69.936
2405.6000, -69.464
2405.8000, -68.753
2406.0000, -68.804
2406.2000, -68.193
2406.4000, -68.728
2406.6000, -69.044
2406.8000, -69.323
2407.0000, -69.144
2407.2000, -69.790
2407.4000, -68.182
2407.6000, -68.792
2407.8000, -69.315
2408.0000, -69.066
2408.2000, -69.404
2408.4000, -68.726
2408.6000, -70.363
2408.8000, -69.409
2409.0000, -68.131
2409.2000, -69.427
2409.4000, -69.704
2409.6000, -69.232
2409.8000, -68.699
2410.0000, -68.796
2410.2000, -69.001
2410.4000, -68.483
2410.6000, -68.043
2410.8000, -68.511
2411.0000, -69.308
2411.2000, -68.753
2411.4000, -68.824
2411.6000, -68.587
2411.8000, -68.837
2412.0000, -69.925
2412.2000, -70.123
2412.4000, -69.525
2412.6000, -67.975
2412.8000, -69.534
2413.0000, -69.123
2413.2000, -68.656
2413.4000, -69.863
2413.6000, -68.873
2413.8000, -68.292
2414.0000, -69.005
2414.2000, -69.510
2414.4000, -68.936
2414.6000, -69.072
2414.8000, -68.954
2415.0000, -69.218
2415.2000, -69.599
2415.4000, -69.349
2415.6000, -68.731
2415.8000, -68.797
2416.0000, -68.640
2416.2000, -69.293
2416.4000, -69.203
2416.6000, -68.737
2416.8000, -69.352
2417.0000, -68.627
2417.2000, -68.964
2417.4000, -69.729
2417.6000, -68.918
2417.8000, -69.797
2418.0000, -68.706
2418.2000, -69.785
2418.4000, -68.921
2418.6000, -68.868
2418.8000, -69.280
2419.0000, -68.480
2419.2000, -69.087
2419.4000, -68.279
2419.6000, -68.602
2419.8000, -68.906
2420.0000, -68.401
2420.2000, -68.795
2420.4000, -69.755
2420.6000, -69.261
2420.8000, -69.263
2421.0000, -69.739
2421.2000, -68.602
2421.4000, -68.598
2421.6000, -69.153
2421.8000, -68.856
2422.0000, -69.637
2422.2000, -68.708
2422.4000, -68.796
2422.6000, -69.318
2422.8000, -69.603
2423.0000, -68.520
2423.2000, -69.054
2423.4000, -68.440
2423.6000, -68.594
2423.8000, -68.859
2424.0000, -69.409
2424.2000, -68.686
2424.4000, -68.475
2424.6000, -68.523
2424.8000, -69.143
2425.0000, -68.084
2425.2000, -69.406
2425.4000, -68.993
2425.6000, -69.161
2425.8000, -68.843
2426.0000, -69.257
2426.2000, -69.597
2426.4000, -68.439
2426.6000, -67.998
2426.8000, -68.480
2427.0000, -68.239
2427.2000, -69.125
2427.4000, -68.508
2427.6000, -68.231
2427.8000, -68.963
2428.0000, -68.832
2428.2000, -68.408
2428.4000, -68.593
2428.6000, -69.299
2428.8000, -68.397
2429.0000, -68.953
2429.2000, -68.397
2429.4000, -68.759
2429.6000, -68.176
2429.8000, -69.088
2430.0000, -68.423
2430.2000, -69.710
2430.4000, -68.300
2430.6000, -68.841
2430.8000, -68.576
2431.0000, -68.854
2431.2000, -69.200
2431.4000, -69.428
2431.6000, -68.732
2431.8000, -67.849
2432.0000, -69.515
2432.2000, -68.387
2432.4000, -68.081
2432.6000, -68.532
2432.8000, -68.480
2433.0000, -68.615
2433.2000, -68.429
2433.4000, -68.193
2433.6000, -68.532
2433.8000, -68.970
2434.0000, -68.720
2434.2000, -68.197
2434.4000, -67.170
2434.6000, -68.421
2434.8000, -68.649
2435.0000, -68.349
2435.2000, -68.870
2435.4000, -68.363
2435.6000, -68.669
2435.8000, -68.326
2436.0000, -69.714
2436.2000, -68.187
2436.4000, -68.631
2436.6000, -69.140
2436.8000, -67.817
2437.0000, -68.574
2437.2000, -68.980
2437.4000, -68.460
2437.6000, -68.030
2437.8000, -68.458
2438.0000, -67.966
2438.2000, -68.936
2438.4000, -68.268
2438.6000, -68.921
2438.8000, -68.599
2439.0000, -68.353
2439.2000, -68.566
2439.4000, -68.725
2439.6000, -68.921
2439.8000, -68.559
2440.0000, -68.649
2440.2000, -68.899
2440.4000, -68.339
2440.6000, -68.531
2440.8000, -69.217
2441.0000, -67.981
2441.2000, -68.325
2441.4000, -68.740
2441.6000, -67.894
2441.8000, -68.993
2442.0000, -69.095
2442.2000, -68.941
2442.4000, -68.748
2442.6000, -68.494
2442.8000, -68.534
2443.0000, -67.968
2443.2000, -68.992
2443.4000, -68.163
2443.6000, -68.523
2443.8000, -68.445
2444.0000, -69.448
2444.2000, -68.699
2444.4000, -69.426
2444.6000, -69.190
2444.8000, -68.749
2445.0000, -68.782
2445.2000, -69.132
2445.4000, -68.530
2445.6000, -67.984
2445.8000, -69.295
2446.0000, -68.244
2446.2000, -69.105
2446.4000, -68.415
2446.6000, -67.854
2446.8000, -68.549
2447.0000, -68.845
2447.2000, -68.281
2447.4000, -68.617
2447.6000, -68.020
2447.8000, -68.890
2448.0000, -68.200
2448.2000, -69.043
2448.4000, -68.472
2448.6000, -67.866
2448.8000, -69.725
2449.0000, -68.155
2449.2000, -68.163
2449.4000, -68.763
2449.6000, -68.537
2449.8000, -68.922
2450.0000, -67.904
2450.2000, -68.222
2450.4000, -68.623
2450.6000, -68.617
2450.8000, -68.192
2451.0000, -67.770
2451.2000, -68.556
2451.4000, -68.654
2451.6000, -68.796
2451.8000, -68.080
2452.0000, -68.735
2452.2000, -69.338
2452.4000, -68.745
2452.6000, -67.948
2452.8000, -69.504
2453.0000, -68.948
2453.2000, -68.312
2453.4000, -69.005
2453.6000, -69.400
2453.8000, -69.346
2454.0000, -68.123
2454.2000, -68.669
2454.4000, -68.082
2454.6000, -68.596
2454.8000, -68.893
2455.0000, -68.010
2455.2000, -67.622
2455.4000, -68.609
2455.6000, -68.928
2455.8000, -68.616
2456.0000, -68.518
2456.2000, -68.216
2456.4000, -68.669
2456.6000, -68.190
2456.8000, -68.671
2457.0000, -69.203
2457.2000, -68.570
2457.4000, -68.802
2457.6000, -68.578
2457.8000, -68.194
2458.0000, -67.478
2458.2000, -67.681
2458.4000, -68.210
2458.6000, -67.846
2458.8000, -68.822
2459.0000, -67.789
2459.2000, -68.558
2459.4000, -68.615
2459.6000, -68.923
2459.8000, -68.310
2460.0000, -68.428
2460.2000, -68.215
2460.4000, -67.818
2460.6000, -68.072
2460.8000, -68.927
2461.0000, -68.301
2461.2000, -67.743
2461.4000, -68.144
2461.6000, -68.006
2461.8000, -68.011
2462.0000, -68.262
2462.2000, -68.576
2462.4000, -68.197
2462.6000, -68.464
2462.8000, -68.266
2463.0000, -67.667
2463.2000, -68.799
2463.4000, -68.838
2463.6000, -67.861
2463.8000, -68.492
2464.0000, -68.393
2464.2000, -68.453
2464.4000, -68.587
2464.6000, -68.513
2464.8000, -68.215
2465.0000, -68.337
2465.2000, -68.730
2465.4000, -68.617
2465.6000, -68.971
2465.8000, -68.346
2466.0000, -67.555
2466.2000, -68.580
2466.4000, -67.915
2466.6000, -67.636
2466.8000, -68.090
2467.0000, -68.091
2467.2000, -68.226
2467.4000, -68.397
2467.6000, -68.539
2467.8000, -68.485
2468.0000, -69.025
2468.2000, -68.754
2468.4000, -67.741
2468.6000, -68.726
2468.8000, -68.433
2469.0000, -68.381
2469.2000, -68.260
2469.4000, -68.300
2469.6000, -68.268
2469.8000, -68.130
2470.0000, -67.719
2470.2000, -68.498
2470.4000, -67.606
2470.6000, -68.842
2470.8000, -68.022
2471.0000, -68.212
2471.2000, -68.202
2471.4000, -68.443
2471.6000, -68.390
2471.8000, -68.686
2472.0000, -67.988
2472.2000, -67.877
2472.4000, -68.365
2472.6000, -68.660
2472.8000, -67.830
2473.0000, -68.041
2473.2000, -68.426
2473.4000, -67.864
2473.6000, -68.295
2473.8000, -68.473
2474.0000, -68.998
2474.2000, -67.939
2474.4000, -68.312
2474.6000, -67.957
2474.8000, -68.344
2475.0000, -68.105
2475.2000, -68.062
2475.4000, -68.036
2475.6000, -68.176
2475.8000, -68.304
2476.0000, -68.182
2476.2000, -67.463
2476.4000, -68.196
2476.6000, -67.984
2476.8000, -68.328
2477.0000, -67.668
2477.2000, -67.731
2477.4000, -68.223
2477.6000, -67.425
2477.8000, -68.196
2478.0000, -68.421
2478.2000, -67.779
2478.4000, -67.891
2478.6000, -68.677
2478.8000, -68.614
2479.0000, -68.170
2479.2000, -68.044
2479.4000, -67.522
2479.6000, -67.948
2479.8000, -68.135
2480.0000, -68.632
2480.2000, -68.751
2480.4000, -68.451
2480.6000, -67.151
2480.8000, -68.440
2481.0000, -68.380
2481.2000, -67.894
2481.4000, -67.274
2481.6000, -67.369
2481.8000, -67.854
2482.0000, -68.252
2482.2000, -69.147
2482.4000, -68.640
2482.6000, -67.400
2482.8000, -67.610
2483.0000, -68.308
2483.2000, -68.276
2483.4000, -67.724
2483.6000, -68.291
2483.8000, -68.967
2484.0000, -67.995
2484.2000, -67.999
2484.4000, -67.932
2484.6000, -67.891
2484.8000, -67.907
2485.0000, -67.589
2485.2000, -68.196
2485.4000, -66.737
2485.6000, -68.599
2485.8000, -68.946
2486.0000, -68.589
2486.2000, -68.287
2486.4000, -67.638
2486.6000, -67.657
2486.8000, -67.587
2487.0000, -67.762
2487.2000, -67.842
2487.4000, -67.657
2487.6000, -69.041
2487.8000, -67.647
2488.0000, -67.712
2488.2000, -67.797
2488.4000, -68.221
2488.6000, -68.092
2488.8000, -67.791
2489.0000, -67.324
2489.2000, -67.865
2489.4000, -67.905
2489.6000, -68.590
2489.8000, -67.819
2490.0000, -69.032
2490.2000, -67.541
2490.4000, -68.095
2490.6000, -68.317
2490.8000, -67.594
2491.0000, -67.896
2491.2000, -67.063
2491.4000, -67.941
2491.6000, -67.763
2491.8000, -67.275
2492.0000, -68.234
2492.2000, -67.793
2492.4000, -68.573
2492.6000, -69.104
2492.8000, -67.917
2493.0000, -68.937
2493.2000, -68.246
2493.4000, -68.204
2493.6000, -67.670
2493.8000, -67.615
2494.0000, -68.095
2494.2000, -67.300
2494.4000, -67.716
2494.6000, -67.431
2494.8000, -68.101
2495.0000, -68.245
2495.2000, -68.665
2495.4000, -68.846
2495.6000, -68.416
2495.8000, -68.763
2496.0000, -68.301
2496.2000, -67.416
2496.4000, -67.663
2496.6000, -67.351
2496.8000, -68.074
2497.0000, -67.735
2497.2000, -67.288
2497.4000, -68.120
2497.6000, -67.742
2497.8000, -67.183
2498.0000, -68.380
2498.2000, -67.590
2498.4000, -68.076
2498.6000, -68.264
2498.8000, -67.781
2499.0000, -66.821
2499.2000, -68.340
2499.4000, -67.511
2499.6000, -67.267
2499.8000, -67.521
2500.0000, -69.032
