74CSV  	
// AQ6374 OPTICAL SPECTRUM ANALYZER //                  
35
"CTRWL",1475.000000
"SPAN", 550.000000
"START WL",1200.000000
"STOP WL",1750.000000
"WLFREQ", 0
"REFL",-10.0
"LSCL",10.0
"RESLN",0.500
"AVG",   1
"SMPLAUTO",      1
"SMPL",       5501
"SMPLINTVL",0.1000
"HIGH1"
"MEAS"
"LSUNT",1
"NMSKH","OFF"
"RESCOR",0
"SMOOTH",0
"MEASWL",0
"SWPSPD",1
"MODELNAME","AQ6374"
"CHGPT",          0
"RESCAL0_0",       9917
"RESCAL0_1",      -1276
"RESCAL0_2",    1976740
"RESCAL1_0",      10084
"RESCAL1_1",          0
"RESCAL1_2",          0
"CORESIZE", 0






"[TRACE DATA]"
1200.0000,-210.000
1200.1000, -79.783
1200.2000, -78.071
1200.3000, -86.655
1200.4000, -77.615
1200.5000, -86.385
1200.6000,-210.000
1200.7000, -88.433
1200.8000, -88.654
1200.9000, -84.146
1201.0000, -82.925
1201.1000, -88.173
1201.2000, -80.079
1201.3000, -81.063
1201.4000, -85.746
1201.5000, -81.962
1201.6000, -82.346
1201.7000, -80.417
1201.8000, -81.192
1201.9000, -78.154
1202.0000, -84.197
1202.1000, -83.068
1202.2000, -82.722
1202.3000, -81.568
1202.4000, -80.205
1202.5000, -85.059
1202.6000, -81.409
1202.7000,-210.000
1202.8000,-210.000
1202.9000, -92.988
1203.0000, -80.478
1203.1000,-210.000
1203.2000, -81.999
1203.3000, -80.498
1203.4000, -88.240
1203.5000,-210.000
1203.6000, -80.209
1203.7000, -76.989
1203.8000, -81.451
1203.9000, -82.071
1204.0000,-210.000
1204.1000, -85.022
1204.2000, -85.641
1204.3000, -78.215
1204.4000, -83.301
1204.5000, -80.415
1204.6000, -83.153
1204.7000, -84.240
1204.8000, -78.062
1204.9000, -79.613
1205.0000,-210.000
1205.1000, -85.250
1205.2000, -76.751
1205.3000, -84.190
1205.4000, -85.372
1205.5000, -78.661
1205.6000,-210.000
1205.7000,-210.000
1205.8000, -81.928
1205.9000, -84.896
1206.0000, -90.661
1206.1000, -82.436
1206.2000, -78.592
1206.3000,-210.000
1206.4000,-210.000
1206.5000, -82.248
1206.6000, -85.536
1206.7000, -82.988
1206.8000, -81.817
1206.9000,-101.323
1207.0000, -80.909
1207.1000, -82.716
1207.2000, -83.239
1207.3000, -81.215
1207.4000, -81.353
1207.5000, -86.468
1207.6000,-210.000
1207.7000, -79.626
1207.8000,-210.000
1207.9000,-210.000
1208.0000, -79.378
1208.1000, -79.048
1208.2000, -89.519
1208.3000,-210.000
1208.4000, -80.469
1208.5000, -81.477
1208.6000, -92.403
1208.7000, -86.257
1208.8000,-101.013
1208.9000,-210.000
1209.0000, -82.879
1209.1000, -92.127
1209.2000,-210.000
1209.3000, -84.791
1209.4000, -80.269
1209.5000, -80.292
1209.6000, -79.457
1209.7000,-210.000
1209.8000,-210.000
1209.9000,-210.000
1210.0000,-210.000
1210.1000, -78.017
1210.2000,-210.000
1210.3000, -79.070
1210.4000, -84.098
1210.5000, -81.182
1210.6000, -81.533
1210.7000, -84.915
1210.8000, -79.017
1210.9000,-210.000
1211.0000, -83.453
1211.1000, -79.950
1211.2000,-210.000
1211.3000, -82.054
1211.4000, -82.850
1211.5000, -81.365
1211.6000, -81.496
1211.7000,-210.000
1211.8000,-210.000
1211.9000, -83.513
1212.0000, -96.957
1212.1000,-210.000
1212.2000, -78.240
1212.3000,-210.000
1212.4000, -78.370
1212.5000,-210.000
1212.6000, -77.614
1212.7000, -87.167
1212.8000, -82.953
1212.9000,-210.000
1213.0000, -81.423
1213.1000, -82.589
1213.2000, -83.201
1213.3000, -85.051
1213.4000,-210.000
1213.5000, -81.619
1213.6000, -97.483
1213.7000, -81.427
1213.8000, -85.949
1213.9000, -81.265
1214.0000, -93.612
1214.1000, -79.855
1214.2000,-210.000
1214.3000,-210.000
1214.4000,-210.000
1214.5000, -80.681
1214.6000, -81.313
1214.7000, -84.799
1214.8000, -80.688
1214.9000, -81.068
1215.0000,-210.000
1215.1000,-210.000
1215.2000, -83.327
1215.3000, -81.027
1215.4000, -80.788
1215.5000,-210.000
1215.6000,-103.453
1215.7000,-210.000
1215.8000, -89.675
1215.9000,-210.000
1216.0000, -82.677
1216.1000, -79.512
1216.2000, -86.775
1216.3000,-210.000
1216.4000, -81.997
1216.5000, -80.576
1216.6000, -81.635
1216.7000, -81.823
1216.8000, -82.177
1216.9000, -85.261
1217.0000,-210.000
1217.1000, -84.699
1217.2000,-210.000
1217.3000, -80.229
1217.4000, -80.192
1217.5000, -79.404
1217.6000, -79.870
1217.7000, -80.325
1217.8000, -90.005
1217.9000, -80.597
1218.0000, -90.954
1218.1000, -82.043
1218.2000, -77.386
1218.3000, -82.163
1218.4000, -90.111
1218.5000,-210.000
1218.6000, -81.208
1218.7000, -93.778
1218.8000, -82.365
1218.9000, -81.504
1219.0000,-210.000
1219.1000, -82.449
1219.2000, -85.381
1219.3000, -90.567
1219.4000, -83.773
1219.5000, -79.820
1219.6000, -79.630
1219.7000,-210.000
1219.8000, -79.572
1219.9000, -79.869
1220.0000, -89.652
1220.1000, -80.768
1220.2000, -78.087
1220.3000, -82.885
1220.4000, -81.892
1220.5000, -78.228
1220.6000, -86.580
1220.7000,-210.000
1220.8000, -84.852
1220.9000, -84.033
1221.0000, -87.252
1221.1000, -83.712
1221.2000,-210.000
1221.3000,-210.000
1221.4000,-210.000
1221.5000, -83.432
1221.6000,-210.000
1221.7000, -81.038
1221.8000, -85.506
1221.9000,-210.000
1222.0000, -84.620
1222.1000,-210.000
1222.2000, -80.703
1222.3000, -78.777
1222.4000, -78.744
1222.5000,-210.000
1222.6000, -98.440
1222.7000, -81.700
1222.8000, -80.241
1222.9000, -77.600
1223.0000, -81.368
1223.1000, -86.218
1223.2000, -84.482
1223.3000,-210.000
1223.4000, -82.008
1223.5000, -85.398
1223.6000, -82.932
1223.7000, -84.550
1223.8000,-210.000
1223.9000, -82.663
1224.0000, -80.692
1224.1000, -81.553
1224.2000, -77.357
1224.3000, -81.555
1224.4000,-210.000
1224.5000, -84.621
1224.6000, -76.976
1224.7000, -81.988
1224.8000, -80.359
1224.9000, -83.102
1225.0000,-210.000
1225.1000, -86.620
1225.2000,-210.000
1225.3000, -87.079
1225.4000, -80.487
1225.5000, -83.309
1225.6000, -80.911
1225.7000, -80.318
1225.8000, -86.399
1225.9000, -86.919
1226.0000,-210.000
1226.1000, -93.718
1226.2000, -80.602
1226.3000, -88.552
1226.4000, -82.782
1226.5000, -84.267
1226.6000, -76.756
1226.7000, -79.035
1226.8000, -79.288
1226.9000, -80.031
1227.0000, -80.909
1227.1000, -78.385
1227.2000, -80.888
1227.3000, -79.927
1227.4000, -80.537
1227.5000, -83.984
1227.6000, -80.227
1227.7000,-111.449
1227.8000, -83.683
1227.9000, -87.046
1228.0000,-210.000
1228.1000, -81.319
1228.2000, -83.449
1228.3000, -84.834
1228.4000, -83.996
1228.5000, -84.913
1228.6000,-210.000
1228.7000, -85.732
1228.8000, -83.194
1228.9000, -85.787
1229.0000, -78.220
1229.1000, -81.526
1229.2000, -78.022
1229.3000, -80.014
1229.4000, -83.734
1229.5000,-210.000
1229.6000, -78.391
1229.7000, -77.166
1229.8000, -78.523
1229.9000, -83.731
1230.0000, -79.887
1230.1000, -84.398
1230.2000, -77.368
1230.3000, -84.113
1230.4000, -79.064
1230.5000, -81.143
1230.6000, -79.424
1230.7000,-210.000
1230.8000, -77.640
1230.9000, -79.098
1231.0000, -86.844
1231.1000, -81.315
1231.2000,-210.000
1231.3000, -81.084
1231.4000, -78.409
1231.5000, -78.382
1231.6000, -83.476
1231.7000, -79.423
1231.8000, -80.134
1231.9000, -82.641
1232.0000, -86.073
1232.1000, -84.658
1232.2000, -83.034
1232.3000, -79.146
1232.4000, -79.685
1232.5000, -83.076
1232.6000, -81.315
1232.7000,-210.000
1232.8000,-210.000
1232.9000, -82.926
1233.0000, -82.142
1233.1000, -92.063
1233.2000, -79.583
1233.3000, -78.673
1233.4000,-210.000
1233.5000, -84.256
1233.6000, -77.575
1233.7000, -80.131
1233.8000,-210.000
1233.9000, -91.148
1234.0000, -80.526
1234.1000,-210.000
1234.2000, -80.074
1234.3000,-210.000
1234.4000, -88.243
1234.5000, -77.674
1234.6000, -87.491
1234.7000,-210.000
1234.8000, -87.627
1234.9000,-100.080
1235.0000, -85.213
1235.1000, -81.378
1235.2000, -81.783
1235.3000, -80.469
1235.4000, -81.594
1235.5000, -79.107
1235.6000, -78.329
1235.7000, -80.150
1235.8000, -77.986
1235.9000, -88.001
1236.0000, -83.599
1236.1000, -77.078
1236.2000, -87.969
1236.3000,-210.000
1236.4000, -79.001
1236.5000, -77.545
1236.6000, -79.511
1236.7000, -81.830
1236.8000, -81.427
1236.9000, -80.836
1237.0000, -80.735
1237.1000, -85.671
1237.2000, -88.497
1237.3000, -85.431
1237.4000, -83.326
1237.5000, -78.864
1237.6000, -83.418
1237.7000,-210.000
1237.8000, -81.569
1237.9000, -77.538
1238.0000, -80.064
1238.1000, -79.726
1238.2000, -79.742
1238.3000, -83.380
1238.4000, -76.375
1238.5000, -79.190
1238.6000, -86.049
1238.7000, -78.541
1238.8000,-210.000
1238.9000, -79.834
1239.0000, -81.068
1239.1000, -88.235
1239.2000,-210.000
1239.3000,-210.000
1239.4000, -89.387
1239.5000, -78.456
1239.6000, -79.345
1239.7000, -84.103
1239.8000, -78.712
1239.9000, -81.935
1240.0000, -81.398
1240.1000, -78.509
1240.2000, -81.466
1240.3000,-210.000
1240.4000, -78.579
1240.5000, -82.306
1240.6000, -82.414
1240.7000, -81.223
1240.8000,-210.000
1240.9000,-210.000
1241.0000,-210.000
1241.1000, -79.127
1241.2000,-210.000
1241.3000,-210.000
1241.4000, -80.235
1241.5000, -89.525
1241.6000, -83.219
1241.7000, -89.238
1241.8000, -78.307
1241.9000, -79.519
1242.0000, -89.305
1242.1000, -88.552
1242.2000, -78.192
1242.3000, -81.905
1242.4000, -78.955
1242.5000, -77.683
1242.6000, -83.015
1242.7000,-210.000
1242.8000, -85.162
1242.9000,-210.000
1243.0000, -82.924
1243.1000,-210.000
1243.2000, -81.839
1243.3000, -79.590
1243.4000, -79.910
1243.5000, -81.830
1243.6000, -81.426
1243.7000, -78.996
1243.8000, -80.412
1243.9000, -82.466
1244.0000, -84.250
1244.1000, -80.920
1244.2000, -79.093
1244.3000,-210.000
1244.4000,-210.000
1244.5000, -89.381
1244.6000, -81.597
1244.7000, -90.877
1244.8000, -93.840
1244.9000,-210.000
1245.0000, -89.504
1245.1000,-210.000
1245.2000, -78.936
1245.3000, -77.158
1245.4000,-210.000
1245.5000,-210.000
1245.6000, -81.515
1245.7000,-210.000
1245.8000, -79.946
1245.9000, -78.677
1246.0000, -79.201
1246.1000, -90.998
1246.2000,-210.000
1246.3000, -82.505
1246.4000,-210.000
1246.5000,-210.000
1246.6000, -83.923
1246.7000, -78.690
1246.8000,-210.000
1246.9000, -81.509
1247.0000, -77.913
1247.1000, -79.534
1247.2000, -85.487
1247.3000, -84.921
1247.4000, -79.099
1247.5000, -82.756
1247.6000, -79.391
1247.7000, -79.063
1247.8000, -80.853
1247.9000, -78.197
1248.0000, -91.681
1248.1000, -82.835
1248.2000, -81.953
1248.3000, -79.599
1248.4000, -81.628
1248.5000,-210.000
1248.6000, -78.047
1248.7000, -87.245
1248.8000, -77.705
1248.9000, -81.197
1249.0000, -82.784
1249.1000, -82.478
1249.2000, -80.598
1249.3000, -81.656
1249.4000, -78.505
1249.5000, -81.821
1249.6000, -80.660
1249.7000,-210.000
1249.8000,-210.000
1249.9000,-210.000
1250.0000, -81.580
1250.1000, -78.916
1250.2000, -78.016
1250.3000, -80.813
1250.4000, -88.386
1250.5000,-108.468
1250.6000, -85.830
1250.7000, -79.958
1250.8000, -78.283
1250.9000, -80.947
1251.0000, -80.089
1251.1000, -79.728
1251.2000, -86.421
1251.3000,-210.000
1251.4000,-210.000
1251.5000, -82.049
1251.6000, -77.330
1251.7000, -78.116
1251.8000,-210.000
1251.9000, -86.888
1252.0000, -80.320
1252.1000, -79.804
1252.2000, -91.141
1252.3000, -81.517
1252.4000, -81.839
1252.5000, -83.342
1252.6000, -86.703
1252.7000, -78.575
1252.8000, -79.668
1252.9000,-210.000
1253.0000, -89.767
1253.1000, -80.214
1253.2000, -84.670
1253.3000, -87.311
1253.4000,-210.000
1253.5000, -84.876
1253.6000, -85.100
1253.7000, -80.800
1253.8000, -79.168
1253.9000, -78.500
1254.0000,-210.000
1254.1000, -84.615
1254.2000, -77.523
1254.3000, -78.849
1254.4000, -81.395
1254.5000,-210.000
1254.6000, -78.930
1254.7000, -84.681
1254.8000,-210.000
1254.9000, -85.313
1255.0000, -82.391
1255.1000, -79.847
1255.2000, -79.215
1255.3000, -79.726
1255.4000, -83.983
1255.5000, -80.512
1255.6000, -82.554
1255.7000, -82.581
1255.8000, -87.845
1255.9000, -80.857
1256.0000, -84.741
1256.1000, -81.954
1256.2000, -81.195
1256.3000,-210.000
1256.4000, -84.528
1256.5000, -80.076
1256.6000,-210.000
1256.7000,-210.000
1256.8000, -79.469
1256.9000, -82.775
1257.0000,-210.000
1257.1000,-210.000
1257.2000, -78.909
1257.3000, -79.852
1257.4000, -80.113
1257.5000, -86.208
1257.6000, -77.817
1257.7000, -77.984
1257.8000, -83.552
1257.9000, -82.031
1258.0000,-210.000
1258.1000, -79.251
1258.2000, -80.200
1258.3000, -97.430
1258.4000,-210.000
1258.5000, -85.520
1258.6000, -80.635
1258.7000, -82.707
1258.8000, -80.302
1258.9000, -84.730
1259.0000,-210.000
1259.1000, -77.103
1259.2000, -79.686
1259.3000, -77.292
1259.4000, -85.301
1259.5000, -85.416
1259.6000, -95.842
1259.7000,-210.000
1259.8000, -82.981
1259.9000, -82.143
1260.0000, -79.436
1260.1000,-210.000
1260.2000,-210.000
1260.3000, -81.779
1260.4000, -78.252
1260.5000, -79.996
1260.6000, -83.387
1260.7000, -81.035
1260.8000, -79.118
1260.9000, -77.011
1261.0000, -82.200
1261.1000, -81.655
1261.2000, -84.642
1261.3000, -86.957
1261.4000, -78.833
1261.5000, -77.064
1261.6000, -83.618
1261.7000,-210.000
1261.8000, -77.838
1261.9000,-210.000
1262.0000,-210.000
1262.1000, -78.199
1262.2000, -86.397
1262.3000, -78.232
1262.4000, -80.965
1262.5000, -79.369
1262.6000,-210.000
1262.7000, -84.188
1262.8000, -78.102
1262.9000, -79.511
1263.0000,-210.000
1263.1000,-210.000
1263.2000, -77.772
1263.3000, -80.324
1263.4000, -83.766
1263.5000,-210.000
1263.6000, -79.958
1263.7000, -79.026
1263.8000, -82.733
1263.9000,-210.000
1264.0000, -79.339
1264.1000, -82.877
1264.2000, -82.127
1264.3000, -84.868
1264.4000,-210.000
1264.5000, -82.055
1264.6000, -78.864
1264.7000, -80.625
1264.8000, -78.948
1264.9000,-210.000
1265.0000, -80.466
1265.1000,-210.000
1265.2000, -81.109
1265.3000, -79.122
1265.4000, -81.109
1265.5000, -81.984
1265.6000, -80.315
1265.7000, -82.081
1265.8000, -83.405
1265.9000, -85.507
1266.0000,-210.000
1266.1000, -80.994
1266.2000, -78.492
1266.3000, -97.387
1266.4000, -79.473
1266.5000, -80.690
1266.6000, -77.699
1266.7000, -83.695
1266.8000, -80.518
1266.9000,-210.000
1267.0000, -81.353
1267.1000, -84.768
1267.2000, -83.630
1267.3000, -79.806
1267.4000, -80.593
1267.5000, -82.507
1267.6000, -89.750
1267.7000, -81.601
1267.8000,-210.000
1267.9000,-210.000
1268.0000, -80.880
1268.1000, -79.031
1268.2000,-210.000
1268.3000, -83.877
1268.4000, -78.526
1268.5000, -83.843
1268.6000, -79.247
1268.7000, -86.131
1268.8000, -78.545
1268.9000, -85.400
1269.0000, -81.624
1269.1000, -81.868
1269.2000, -82.304
1269.3000,-210.000
1269.4000, -83.378
1269.5000, -81.054
1269.6000, -88.367
1269.7000,-210.000
1269.8000, -79.395
1269.9000, -88.273
1270.0000, -81.734
1270.1000, -81.533
1270.2000, -81.008
1270.3000, -93.142
1270.4000,-210.000
1270.5000, -85.703
1270.6000, -79.541
1270.7000, -88.345
1270.8000, -81.116
1270.9000, -83.991
1271.0000,-210.000
1271.1000, -76.908
1271.2000,-210.000
1271.3000,-210.000
1271.4000,-210.000
1271.5000, -78.918
1271.6000, -78.882
1271.7000, -78.437
1271.8000, -82.228
1271.9000, -80.998
1272.0000, -83.803
1272.1000, -87.793
1272.2000, -80.983
1272.3000, -77.584
1272.4000, -83.019
1272.5000, -81.167
1272.6000, -88.465
1272.7000, -79.715
1272.8000, -83.778
1272.9000, -82.838
1273.0000, -79.968
1273.1000, -79.483
1273.2000, -79.647
1273.3000, -76.700
1273.4000, -85.093
1273.5000, -78.716
1273.6000, -81.917
1273.7000, -84.841
1273.8000,-210.000
1273.9000, -92.205
1274.0000, -83.584
1274.1000, -77.003
1274.2000, -90.234
1274.3000, -78.576
1274.4000, -76.013
1274.5000, -79.416
1274.6000, -81.541
1274.7000, -78.565
1274.8000, -79.772
1274.9000, -77.864
1275.0000, -81.786
1275.1000, -93.673
1275.2000, -80.487
1275.3000, -82.103
1275.4000,-210.000
1275.5000,-210.000
1275.6000, -78.258
1275.7000, -81.274
1275.8000,-210.000
1275.9000, -81.639
1276.0000, -82.247
1276.1000, -79.820
1276.2000, -81.445
1276.3000, -79.026
1276.4000, -88.595
1276.5000,-110.286
1276.6000, -88.085
1276.7000,-210.000
1276.8000, -80.864
1276.9000, -78.310
1277.0000, -82.533
1277.1000, -81.165
1277.2000, -87.008
1277.3000, -84.518
1277.4000, -79.549
1277.5000,-210.000
1277.6000,-210.000
1277.7000, -79.440
1277.8000, -78.018
1277.9000, -78.918
1278.0000,-210.000
1278.1000,-210.000
1278.2000, -91.667
1278.3000, -85.847
1278.4000, -82.425
1278.5000,-210.000
1278.6000, -79.150
1278.7000, -82.200
1278.8000, -88.241
1278.9000,-210.000
1279.0000, -83.364
1279.1000, -81.707
1279.2000, -84.327
1279.3000, -76.444
1279.4000, -80.517
1279.5000, -79.544
1279.6000, -86.755
1279.7000,-210.000
1279.8000, -78.859
1279.9000, -83.905
1280.0000, -85.239
1280.1000, -79.748
1280.2000, -87.475
1280.3000, -82.214
1280.4000, -80.155
1280.5000, -77.387
1280.6000,-210.000
1280.7000,-210.000
1280.8000, -78.839
1280.9000, -78.008
1281.0000, -88.364
1281.1000, -78.568
1281.2000,-210.000
1281.3000,-210.000
1281.4000, -81.495
1281.5000, -79.231
1281.6000, -83.297
1281.7000, -96.218
1281.8000, -78.876
1281.9000, -79.546
1282.0000, -78.678
1282.1000, -80.374
1282.2000, -85.763
1282.3000, -81.766
1282.4000,-210.000
1282.5000, -81.374
1282.6000, -80.242
1282.7000, -82.911
1282.8000, -80.139
1282.9000, -80.637
1283.0000, -83.899
1283.1000,-210.000
1283.2000, -84.070
1283.3000, -85.453
1283.4000, -79.898
1283.5000, -80.732
1283.6000, -78.639
1283.7000, -85.896
1283.8000, -80.132
1283.9000,-210.000
1284.0000, -85.649
1284.1000,-210.000
1284.2000, -81.944
1284.3000, -84.172
1284.4000, -84.633
1284.5000, -78.834
1284.6000, -80.697
1284.7000, -80.433
1284.8000, -79.500
1284.9000,-210.000
1285.0000, -81.709
1285.1000, -85.258
1285.2000, -90.151
1285.3000, -92.336
1285.4000, -75.937
1285.5000, -86.366
1285.6000, -80.766
1285.7000, -80.302
1285.8000, -79.816
1285.9000, -78.897
1286.0000, -85.455
1286.1000, -76.779
1286.2000, -77.330
1286.3000,-210.000
1286.4000, -80.065
1286.5000,-210.000
1286.6000, -77.650
1286.7000, -88.924
1286.8000, -83.879
1286.9000,-210.000
1287.0000,-210.000
1287.1000, -82.172
1287.2000, -79.108
1287.3000,-210.000
1287.4000, -77.395
1287.5000, -79.272
1287.6000, -81.744
1287.7000,-210.000
1287.8000, -81.829
1287.9000, -84.179
1288.0000, -87.153
1288.1000, -82.175
1288.2000, -93.109
1288.3000, -83.421
1288.4000, -81.122
1288.5000, -85.973
1288.6000, -85.287
1288.7000, -84.506
1288.8000,-210.000
1288.9000,-210.000
1289.0000, -89.956
1289.1000, -82.448
1289.2000,-210.000
1289.3000,-210.000
1289.4000, -84.070
1289.5000,-210.000
1289.6000, -84.348
1289.7000,-210.000
1289.8000, -76.757
1289.9000, -79.573
1290.0000, -84.515
1290.1000, -82.471
1290.2000, -79.145
1290.3000, -77.826
1290.4000, -80.477
1290.5000, -80.906
1290.6000, -84.514
1290.7000,-210.000
1290.8000,-210.000
1290.9000, -78.542
1291.0000,-210.000
1291.1000,-210.000
1291.2000,-210.000
1291.3000, -80.830
1291.4000,-210.000
1291.5000, -81.007
1291.6000, -81.331
1291.7000, -88.475
1291.8000, -79.640
1291.9000, -82.029
1292.0000, -80.868
1292.1000,-210.000
1292.2000, -81.485
1292.3000, -81.216
1292.4000, -82.252
1292.5000,-210.000
1292.6000, -84.382
1292.7000, -76.860
1292.8000,-210.000
1292.9000,-210.000
1293.0000, -82.555
1293.1000, -82.120
1293.2000, -80.028
1293.3000, -85.481
1293.4000, -80.759
1293.5000, -76.631
1293.6000,-210.000
1293.7000, -79.504
1293.8000, -82.037
1293.9000, -83.848
1294.0000, -81.457
1294.1000,-210.000
1294.2000, -79.096
1294.3000,-210.000
1294.4000, -85.242
1294.5000, -80.074
1294.6000, -78.266
1294.7000, -85.727
1294.8000, -80.224
1294.9000, -82.497
1295.0000, -85.298
1295.1000,-210.000
1295.2000, -84.292
1295.3000, -87.268
1295.4000, -81.959
1295.5000, -83.537
1295.6000, -81.254
1295.7000, -79.394
1295.8000, -81.880
1295.9000, -82.154
1296.0000, -77.621
1296.1000, -84.994
1296.2000,-210.000
1296.3000,-210.000
1296.4000, -93.327
1296.5000, -84.495
1296.6000, -81.789
1296.7000,-210.000
1296.8000, -80.675
1296.9000, -79.511
1297.0000, -80.678
1297.1000, -78.986
1297.2000, -79.757
1297.3000, -82.523
1297.4000,-210.000
1297.5000, -82.127
1297.6000,-210.000
1297.7000, -80.057
1297.8000, -80.341
1297.9000, -80.919
1298.0000, -86.996
1298.1000, -83.680
1298.2000,-210.000
1298.3000, -76.731
1298.4000, -80.898
1298.5000, -88.012
1298.6000, -82.021
1298.7000,-210.000
1298.8000, -81.058
1298.9000,-210.000
1299.0000, -81.796
1299.1000, -87.232
1299.2000, -80.171
1299.3000, -81.722
1299.4000, -84.898
1299.5000, -83.258
1299.6000,-210.000
1299.7000, -96.214
1299.8000, -83.563
1299.9000, -83.297
1300.0000, -88.992
1300.1000, -86.363
1300.2000, -79.221
1300.3000, -80.963
1300.4000, -79.552
1300.5000, -80.030
1300.6000, -83.373
1300.7000, -89.072
1300.8000, -79.394
1300.9000, -79.276
1301.0000, -80.037
1301.1000, -86.543
1301.2000, -81.711
1301.3000, -77.346
1301.4000, -77.619
1301.5000, -80.959
1301.6000,-210.000
1301.7000, -80.823
1301.8000, -79.889
1301.9000, -82.244
1302.0000,-210.000
1302.1000, -94.782
1302.2000, -78.822
1302.3000, -78.559
1302.4000, -77.125
1302.5000, -78.159
1302.6000, -85.998
1302.7000, -85.410
1302.8000, -83.891
1302.9000, -77.294
1303.0000,-210.000
1303.1000, -77.792
1303.2000,-210.000
1303.3000, -81.660
1303.4000, -83.029
1303.5000, -81.730
1303.6000,-210.000
1303.7000, -82.904
1303.8000,-210.000
1303.9000, -85.314
1304.0000,-210.000
1304.1000, -82.477
1304.2000, -82.962
1304.3000, -85.261
1304.4000, -83.015
1304.5000, -81.436
1304.6000, -85.421
1304.7000, -80.926
1304.8000,-210.000
1304.9000,-210.000
1305.0000, -86.557
1305.1000, -84.685
1305.2000,-210.000
1305.3000, -78.370
1305.4000, -83.945
1305.5000,-210.000
1305.6000, -85.166
1305.7000, -79.304
1305.8000,-210.000
1305.9000, -82.801
1306.0000, -88.840
1306.1000,-210.000
1306.2000, -82.954
1306.3000, -80.350
1306.4000, -77.968
1306.5000,-210.000
1306.6000, -83.373
1306.7000, -83.625
1306.8000, -80.176
1306.9000, -77.777
1307.0000,-210.000
1307.1000, -81.490
1307.2000,-210.000
1307.3000, -90.857
1307.4000, -81.302
1307.5000, -81.021
1307.6000, -87.247
1307.7000, -80.474
1307.8000, -80.904
1307.9000, -80.014
1308.0000, -83.482
1308.1000, -80.234
1308.2000,-210.000
1308.3000, -79.776
1308.4000,-210.000
1308.5000, -85.501
1308.6000,-210.000
1308.7000, -86.373
1308.8000, -82.917
1308.9000, -77.146
1309.0000, -80.067
1309.1000, -80.561
1309.2000, -78.480
1309.3000, -81.455
1309.4000, -78.328
1309.5000, -81.005
1309.6000, -79.242
1309.7000, -80.011
1309.8000, -80.957
1309.9000,-210.000
1310.0000,-210.000
1310.1000, -81.530
1310.2000, -79.935
1310.3000,-210.000
1310.4000,-210.000
1310.5000, -80.817
1310.6000, -78.528
1310.7000, -82.343
1310.8000, -87.368
1310.9000,-210.000
1311.0000, -76.189
1311.1000, -79.436
1311.2000, -81.487
1311.3000, -83.752
1311.4000,-210.000
1311.5000, -80.362
1311.6000, -80.898
1311.7000,-100.914
1311.8000,-210.000
1311.9000,-210.000
1312.0000,-210.000
1312.1000, -80.098
1312.2000, -82.848
1312.3000, -78.733
1312.4000, -81.977
1312.5000, -89.513
1312.6000, -80.781
1312.7000, -84.583
1312.8000,-210.000
1312.9000,-210.000
1313.0000,-210.000
1313.1000,-210.000
1313.2000,-210.000
1313.3000, -77.628
1313.4000,-210.000
1313.5000, -87.035
1313.6000,-210.000
1313.7000, -79.690
1313.8000, -78.778
1313.9000,-210.000
1314.0000,-210.000
1314.1000,-210.000
1314.2000,-210.000
1314.3000, -79.773
1314.4000,-210.000
1314.5000, -78.345
1314.6000, -82.096
1314.7000, -95.718
1314.8000, -87.366
1314.9000,-210.000
1315.0000, -79.446
1315.1000, -76.524
1315.2000, -77.567
1315.3000, -77.909
1315.4000, -86.786
1315.5000, -80.989
1315.6000, -80.202
1315.7000, -81.058
1315.8000, -88.575
1315.9000, -78.943
1316.0000, -82.495
1316.1000,-210.000
1316.2000, -91.308
1316.3000, -84.300
1316.4000, -80.899
1316.5000, -84.990
1316.6000, -82.171
1316.7000,-210.000
1316.8000, -85.771
1316.9000, -83.216
1317.0000, -88.007
1317.1000,-210.000
1317.2000, -80.461
1317.3000, -80.289
1317.4000,-210.000
1317.5000, -89.697
1317.6000,-210.000
1317.7000,-210.000
1317.8000, -93.770
1317.9000, -84.923
1318.0000,-210.000
1318.1000, -87.006
1318.2000, -80.837
1318.3000, -80.099
1318.4000, -80.576
1318.5000,-210.000
1318.6000, -81.160
1318.7000, -84.260
1318.8000, -79.325
1318.9000, -81.330
1319.0000, -84.825
1319.1000, -79.344
1319.2000, -78.710
1319.3000, -77.796
1319.4000, -81.238
1319.5000, -82.180
1319.6000, -81.399
1319.7000, -84.421
1319.8000, -84.960
1319.9000,-210.000
1320.0000,-210.000
1320.1000, -85.136
1320.2000, -82.713
1320.3000, -79.073
1320.4000,-210.000
1320.5000, -81.345
1320.6000, -81.856
1320.7000, -80.419
1320.8000,-210.000
1320.9000, -77.851
1321.0000, -82.595
1321.1000, -94.484
1321.2000, -77.821
1321.3000, -78.375
1321.4000, -96.018
1321.5000,-210.000
1321.6000, -80.937
1321.7000, -85.526
1321.8000, -80.590
1321.9000,-210.000
1322.0000, -78.877
1322.1000, -78.284
1322.2000, -80.925
1322.3000,-210.000
1322.4000, -79.029
1322.5000, -78.203
1322.6000, -78.717
1322.7000, -83.258
1322.8000,-210.000
1322.9000,-210.000
1323.0000,-210.000
1323.1000, -82.357
1323.2000, -81.469
1323.3000, -81.426
1323.4000,-210.000
1323.5000, -80.754
1323.6000,-210.000
1323.7000,-210.000
1323.8000, -86.400
1323.9000, -80.796
1324.0000, -80.496
1324.1000, -81.605
1324.2000, -81.493
1324.3000, -75.513
1324.4000, -83.025
1324.5000,-210.000
1324.6000, -77.602
1324.7000, -79.074
1324.8000,-210.000
1324.9000,-210.000
1325.0000, -78.793
1325.1000, -83.851
1325.2000, -78.449
1325.3000, -82.948
1325.4000,-210.000
1325.5000, -80.331
1325.6000,-210.000
1325.7000, -79.246
1325.8000, -80.277
1325.9000, -86.782
1326.0000,-210.000
1326.1000, -83.430
1326.2000, -92.218
1326.3000, -80.963
1326.4000, -78.074
1326.5000, -88.479
1326.6000,-210.000
1326.7000, -84.016
1326.8000, -81.576
1326.9000,-210.000
1327.0000,-210.000
1327.1000, -81.859
1327.2000, -81.305
1327.3000,-210.000
1327.4000, -78.807
1327.5000, -81.812
1327.6000,-210.000
1327.7000, -79.000
1327.8000,-210.000
1327.9000, -79.618
1328.0000, -82.009
1328.1000, -82.094
1328.2000, -79.019
1328.3000, -89.515
1328.4000, -81.164
1328.5000, -82.383
1328.6000, -81.374
1328.7000, -82.390
1328.8000,-210.000
1328.9000, -81.435
1329.0000,-210.000
1329.1000, -85.053
1329.2000, -87.044
1329.3000,-210.000
1329.4000,-210.000
1329.5000,-210.000
1329.6000, -84.902
1329.7000, -79.247
1329.8000, -81.254
1329.9000, -80.073
1330.0000,-210.000
1330.1000, -80.669
1330.2000, -91.315
1330.3000, -84.426
1330.4000,-210.000
1330.5000, -85.270
1330.6000, -87.405
1330.7000, -85.229
1330.8000, -92.955
1330.9000, -81.153
1331.0000, -80.622
1331.1000, -88.639
1331.2000,-210.000
1331.3000, -88.022
1331.4000, -78.472
1331.5000, -81.990
1331.6000, -82.685
1331.7000, -81.618
1331.8000, -78.678
1331.9000,-210.000
1332.0000,-210.000
1332.1000,-210.000
1332.2000, -79.333
1332.3000, -88.956
1332.4000, -85.909
1332.5000, -80.439
1332.6000, -78.132
1332.7000, -82.600
1332.8000, -85.668
1332.9000, -79.042
1333.0000, -97.516
1333.1000, -79.498
1333.2000,-210.000
1333.3000, -80.970
1333.4000, -81.802
1333.5000, -80.710
1333.6000, -97.257
1333.7000, -76.564
1333.8000, -79.949
1333.9000, -77.712
1334.0000, -85.422
1334.1000, -82.512
1334.2000, -78.243
1334.3000, -77.381
1334.4000,-210.000
1334.5000, -79.093
1334.6000, -83.970
1334.7000, -79.642
1334.8000, -83.586
1334.9000, -79.878
1335.0000,-210.000
1335.1000,-210.000
1335.2000,-210.000
1335.3000,-210.000
1335.4000,-210.000
1335.5000,-210.000
1335.6000,-210.000
1335.7000, -82.523
1335.8000, -83.436
1335.9000, -81.324
1336.0000, -79.350
1336.1000, -78.352
1336.2000, -79.193
1336.3000, -89.297
1336.4000, -84.606
1336.5000, -93.026
1336.6000,-210.000
1336.7000,-210.000
1336.8000,-210.000
1336.9000, -80.674
1337.0000, -79.478
1337.1000, -78.431
1337.2000, -77.311
1337.3000, -83.373
1337.4000, -83.767
1337.5000, -85.252
1337.6000, -95.327
1337.7000,-210.000
1337.8000, -81.113
1337.9000, -80.282
1338.0000, -89.425
1338.1000, -81.499
1338.2000, -77.173
1338.3000, -93.860
1338.4000, -85.115
1338.5000,-210.000
1338.6000,-210.000
1338.7000, -78.707
1338.8000,-210.000
1338.9000, -80.522
1339.0000, -78.261
1339.1000,-210.000
1339.2000, -84.130
1339.3000, -76.449
1339.4000, -80.401
1339.5000, -78.963
1339.6000, -82.981
1339.7000, -80.839
1339.8000, -95.553
1339.9000, -83.350
1340.0000, -84.204
1340.1000, -78.288
1340.2000, -77.407
1340.3000, -78.550
1340.4000, -84.004
1340.5000, -81.240
1340.6000, -85.470
1340.7000, -78.721
1340.8000, -82.273
1340.9000, -87.559
1341.0000,-210.000
1341.1000,-210.000
1341.2000,-210.000
1341.3000,-210.000
1341.4000, -84.535
1341.5000,-210.000
1341.6000, -78.776
1341.7000, -89.483
1341.8000, -80.340
1341.9000,-210.000
1342.0000,-210.000
1342.1000, -77.950
1342.2000,-210.000
1342.3000, -76.644
1342.4000, -98.982
1342.5000, -82.502
1342.6000, -86.741
1342.7000, -89.545
1342.8000, -77.092
1342.9000, -81.803
1343.0000,-210.000
1343.1000, -81.626
1343.2000, -79.852
1343.3000, -92.056
1343.4000, -88.147
1343.5000, -80.954
1343.6000, -77.038
1343.7000, -81.510
1343.8000, -80.773
1343.9000, -77.124
1344.0000, -78.895
1344.1000, -80.234
1344.2000, -77.605
1344.3000, -81.452
1344.4000,-210.000
1344.5000,-210.000
1344.6000,-210.000
1344.7000, -80.698
1344.8000, -86.924
1344.9000, -77.413
1345.0000, -80.766
1345.1000, -79.146
1345.2000, -80.712
1345.3000, -78.611
1345.4000, -79.136
1345.5000, -81.979
1345.6000,-210.000
1345.7000,-210.000
1345.8000,-210.000
1345.9000, -80.193
1346.0000, -76.553
1346.1000, -77.565
1346.2000,-210.000
1346.3000, -81.866
1346.4000,-210.000
1346.5000, -81.269
1346.6000, -82.502
1346.7000, -81.704
1346.8000, -79.759
1346.9000,-210.000
1347.0000, -81.018
1347.1000, -88.171
1347.2000, -81.695
1347.3000, -76.134
1347.4000, -79.948
1347.5000, -78.289
1347.6000,-210.000
1347.7000, -81.965
1347.8000, -88.882
1347.9000, -82.074
1348.0000,-210.000
1348.1000, -82.399
1348.2000, -76.183
1348.3000, -78.190
1348.4000, -80.234
1348.5000, -76.714
1348.6000,-210.000
1348.7000, -79.844
1348.8000, -81.165
1348.9000, -77.656
1349.0000, -79.782
1349.1000, -79.575
1349.2000, -88.081
1349.3000, -79.568
1349.4000, -80.367
1349.5000, -82.803
1349.6000, -77.243
1349.7000, -80.036
1349.8000, -75.792
1349.9000, -82.729
1350.0000, -79.667
1350.1000, -78.597
1350.2000, -78.551
1350.3000, -78.278
1350.4000, -77.450
1350.5000, -80.163
1350.6000, -78.774
1350.7000, -79.735
1350.8000, -80.315
1350.9000, -78.328
1351.0000, -85.461
1351.1000, -82.357
1351.2000, -77.776
1351.3000,-210.000
1351.4000,-210.000
1351.5000, -83.001
1351.6000, -78.533
1351.7000,-101.650
1351.8000,-210.000
1351.9000, -79.782
1352.0000, -78.673
1352.1000, -80.639
1352.2000, -86.893
1352.3000, -80.793
1352.4000, -93.251
1352.5000, -78.856
1352.6000, -84.752
1352.7000, -79.981
1352.8000,-210.000
1352.9000,-210.000
1353.0000, -76.701
1353.1000, -79.623
1353.2000,-210.000
1353.3000, -82.416
1353.4000, -80.340
1353.5000, -79.621
1353.6000, -82.024
1353.7000,-210.000
1353.8000, -86.982
1353.9000, -77.887
1354.0000, -75.374
1354.1000, -82.287
1354.2000, -76.579
1354.3000, -82.668
1354.4000, -79.952
1354.5000, -78.442
1354.6000, -81.999
1354.7000, -81.251
1354.8000, -87.094
1354.9000, -76.108
1355.0000, -81.341
1355.1000, -84.476
1355.2000, -83.529
1355.3000, -94.843
1355.4000, -82.955
1355.5000, -80.807
1355.6000, -77.596
1355.7000, -76.752
1355.8000,-210.000
1355.9000, -79.478
1356.0000, -78.998
1356.1000, -78.962
1356.2000, -85.576
1356.3000, -77.733
1356.4000, -77.683
1356.5000, -79.585
1356.6000, -80.783
1356.7000, -79.081
1356.8000, -79.825
1356.9000,-210.000
1357.0000, -80.760
1357.1000, -79.446
1357.2000, -80.519
1357.3000, -75.920
1357.4000, -84.007
1357.5000, -78.571
1357.6000, -79.332
1357.7000, -75.984
1357.8000, -79.302
1357.9000,-210.000
1358.0000, -80.364
1358.1000, -77.306
1358.2000, -76.997
1358.3000, -87.006
1358.4000, -77.372
1358.5000, -79.723
1358.6000, -81.418
1358.7000, -79.207
1358.8000, -78.723
1358.9000, -80.101
1359.0000, -81.717
1359.1000, -78.135
1359.2000, -78.075
1359.3000, -94.229
1359.4000, -82.519
1359.5000, -78.315
1359.6000, -81.579
1359.7000, -92.548
1359.8000, -78.311
1359.9000, -77.411
1360.0000, -75.841
1360.1000, -81.766
1360.2000, -77.347
1360.3000, -77.729
1360.4000, -76.929
1360.5000, -77.467
1360.6000, -79.315
1360.7000, -78.916
1360.8000, -83.452
1360.9000, -78.191
1361.0000, -76.814
1361.1000, -77.072
1361.2000, -79.467
1361.3000, -75.122
1361.4000, -78.290
1361.5000, -78.376
1361.6000, -76.436
1361.7000, -79.037
1361.8000, -80.715
1361.9000, -77.344
1362.0000, -76.651
1362.1000, -81.550
1362.2000, -76.537
1362.3000, -78.046
1362.4000, -80.696
1362.5000, -83.773
1362.6000, -77.086
1362.7000, -77.357
1362.8000, -79.807
1362.9000, -79.138
1363.0000, -80.653
1363.1000, -80.043
1363.2000, -76.431
1363.3000, -80.145
1363.4000, -75.804
1363.5000, -80.042
1363.6000, -75.528
1363.7000, -76.286
1363.8000, -76.368
1363.9000, -74.486
1364.0000, -78.266
1364.1000, -79.415
1364.2000, -74.614
1364.3000, -78.842
1364.4000, -76.456
1364.5000, -75.207
1364.6000, -76.757
1364.7000, -79.273
1364.8000, -77.251
1364.9000, -75.651
1365.0000, -76.644
1365.1000, -76.410
1365.2000, -76.955
1365.3000, -75.916
1365.4000, -80.345
1365.5000, -78.208
1365.6000, -84.535
1365.7000, -75.073
1365.8000, -76.144
1365.9000, -79.310
1366.0000, -77.891
1366.1000, -77.502
1366.2000, -77.216
1366.3000, -77.121
1366.4000, -77.761
1366.5000, -75.416
1366.6000, -74.879
1366.7000, -78.303
1366.8000, -75.934
1366.9000, -77.041
1367.0000, -77.591
1367.1000, -75.783
1367.2000, -77.316
1367.3000, -75.548
1367.4000, -74.897
1367.5000, -76.724
1367.6000, -76.772
1367.7000, -74.009
1367.8000, -75.367
1367.9000, -76.695
1368.0000, -79.520
1368.1000, -78.808
1368.2000, -76.373
1368.3000, -74.382
1368.4000, -74.506
1368.5000, -74.394
1368.6000, -75.006
1368.7000, -75.039
1368.8000, -74.957
1368.9000, -74.878
1369.0000, -76.899
1369.1000, -79.296
1369.2000, -74.441
1369.3000, -75.127
1369.4000, -75.043
1369.5000, -76.758
1369.6000, -75.922
1369.7000, -77.468
1369.8000, -74.979
1369.9000, -75.790
1370.0000, -76.293
1370.1000, -74.820
1370.2000, -73.933
1370.3000, -74.670
1370.4000, -77.956
1370.5000, -74.088
1370.6000, -74.219
1370.7000, -77.187
1370.8000, -77.670
1370.9000, -75.700
1371.0000, -76.536
1371.1000, -75.791
1371.2000, -76.073
1371.3000, -74.181
1371.4000, -74.876
1371.5000, -77.539
1371.6000, -76.361
1371.7000, -76.252
1371.8000, -74.314
1371.9000, -74.627
1372.0000, -73.692
1372.1000, -74.350
1372.2000, -75.809
1372.3000, -73.989
1372.4000, -73.840
1372.5000, -74.111
1372.6000, -76.033
1372.7000, -75.404
1372.8000, -73.655
1372.9000, -74.131
1373.0000, -74.833
1373.1000, -74.395
1373.2000, -73.868
1373.3000, -73.721
1373.4000, -74.606
1373.5000, -74.339
1373.6000, -74.236
1373.7000, -73.614
1373.8000, -73.489
1373.9000, -73.399
1374.0000, -73.676
1374.1000, -73.923
1374.2000, -74.578
1374.3000, -77.616
1374.4000, -73.793
1374.5000, -72.507
1374.6000, -73.166
1374.7000, -74.214
1374.8000, -73.261
1374.9000, -73.770
1375.0000, -73.964
1375.1000, -73.021
1375.2000, -73.168
1375.3000, -73.694
1375.4000, -72.360
1375.5000, -73.582
1375.6000, -74.089
1375.7000, -73.475
1375.8000, -72.828
1375.9000, -72.521
1376.0000, -73.799
1376.1000, -72.763
1376.2000, -73.267
1376.3000, -73.239
1376.4000, -72.324
1376.5000, -73.745
1376.6000, -73.285
1376.7000, -73.267
1376.8000, -73.361
1376.9000, -73.660
1377.0000, -72.053
1377.1000, -72.128
1377.2000, -73.246
1377.3000, -72.363
1377.4000, -73.004
1377.5000, -73.282
1377.6000, -72.817
1377.7000, -72.887
1377.8000, -71.590
1377.9000, -74.012
1378.0000, -72.579
1378.1000, -72.827
1378.2000, -72.983
1378.3000, -73.365
1378.4000, -73.476
1378.5000, -72.408
1378.6000, -72.983
1378.7000, -72.093
1378.8000, -71.770
1378.9000, -72.324
1379.0000, -72.717
1379.1000, -71.909
1379.2000, -72.059
1379.3000, -71.431
1379.4000, -71.255
1379.5000, -71.989
1379.6000, -71.761
1379.7000, -71.480
1379.8000, -72.042
1379.9000, -72.867
1380.0000, -72.018
1380.1000, -71.705
1380.2000, -71.928
1380.3000, -73.224
1380.4000, -71.963
1380.5000, -72.169
1380.6000, -72.046
1380.7000, -72.397
1380.8000, -71.998
1380.9000, -70.842
1381.0000, -73.133
1381.1000, -71.336
1381.2000, -71.786
1381.3000, -71.502
1381.4000, -71.805
1381.5000, -71.890
1381.6000, -72.857
1381.7000, -72.193
1381.8000, -71.347
1381.9000, -70.845
1382.0000, -71.129
1382.1000, -71.509
1382.2000, -72.080
1382.3000, -71.683
1382.4000, -71.452
1382.5000, -71.314
1382.6000, -71.881
1382.7000, -70.831
1382.8000, -70.748
1382.9000, -70.597
1383.0000, -70.976
1383.1000, -70.366
1383.2000, -70.582
1383.3000, -70.888
1383.4000, -71.285
1383.5000, -71.671
1383.6000, -70.671
1383.7000, -70.654
1383.8000, -70.318
1383.9000, -69.663
1384.0000, -70.657
1384.1000, -70.909
1384.2000, -70.179
1384.3000, -71.066
1384.4000, -70.054
1384.5000, -70.421
1384.6000, -70.478
1384.7000, -70.191
1384.8000, -70.121
1384.9000, -70.740
1385.0000, -70.006
1385.1000, -70.307
1385.2000, -70.127
1385.3000, -69.639
1385.4000, -70.317
1385.5000, -69.976
1385.6000, -70.479
1385.7000, -69.609
1385.8000, -69.741
1385.9000, -69.830
1386.0000, -69.475
1386.1000, -69.493
1386.2000, -69.801
1386.3000, -69.505
1386.4000, -69.367
1386.5000, -69.808
1386.6000, -69.426
1386.7000, -69.087
1386.8000, -69.090
1386.9000, -68.867
1387.0000, -69.695
1387.1000, -68.975
1387.2000, -68.863
1387.3000, -69.211
1387.4000, -70.148
1387.5000, -69.420
1387.6000, -69.255
1387.7000, -69.588
1387.8000, -69.536
1387.9000, -68.922
1388.0000, -69.121
1388.1000, -69.552
1388.2000, -69.334
1388.3000, -68.815
1388.4000, -68.535
1388.5000, -68.602
1388.6000, -68.984
1388.7000, -69.362
1388.8000, -68.856
1388.9000, -69.092
1389.0000, -68.376
1389.1000, -68.342
1389.2000, -68.420
1389.3000, -68.676
1389.4000, -69.129
1389.5000, -68.220
1389.6000, -68.521
1389.7000, -68.680
1389.8000, -68.276
1389.9000, -68.271
1390.0000, -67.951
1390.1000, -68.202
1390.2000, -67.749
1390.3000, -67.936
1390.4000, -68.110
1390.5000, -68.289
1390.6000, -68.319
1390.7000, -68.409
1390.8000, -67.743
1390.9000, -67.490
1391.0000, -67.930
1391.1000, -67.463
1391.2000, -67.855
1391.3000, -67.717
1391.4000, -67.900
1391.5000, -67.547
1391.6000, -67.520
1391.7000, -67.985
1391.8000, -67.754
1391.9000, -67.586
1392.0000, -67.675
1392.1000, -68.034
1392.2000, -68.056
1392.3000, -67.391
1392.4000, -67.453
1392.5000, -67.019
1392.6000, -67.407
1392.7000, -67.043
1392.8000, -66.995
1392.9000, -67.079
1393.0000, -67.098
1393.1000, -66.997
1393.2000, -66.876
1393.3000, -66.923
1393.4000, -67.049
1393.5000, -66.825
1393.6000, -66.867
1393.7000, -66.681
1393.8000, -66.437
1393.9000, -66.675
1394.0000, -66.819
1394.1000, -66.806
1394.2000, -66.568
1394.3000, -66.436
1394.4000, -66.897
1394.5000, -66.568
1394.6000, -66.691
1394.7000, -66.515
1394.8000, -66.368
1394.9000, -66.527
1395.0000, -66.602
1395.1000, -66.263
1395.2000, -66.309
1395.3000, -66.056
1395.4000, -66.032
1395.5000, -66.163
1395.6000, -66.226
1395.7000, -66.094
1395.8000, -66.187
1395.9000, -66.046
1396.0000, -66.229
1396.1000, -65.967
1396.2000, -65.880
1396.3000, -65.896
1396.4000, -65.829
1396.5000, -65.501
1396.6000, -65.599
1396.7000, -65.587
1396.8000, -65.288
1396.9000, -65.724
1397.0000, -65.454
1397.1000, -65.335
1397.2000, -65.366
1397.3000, -65.305
1397.4000, -65.359
1397.5000, -65.290
1397.6000, -65.213
1397.7000, -65.093
1397.8000, -65.040
1397.9000, -64.985
1398.0000, -65.038
1398.1000, -64.947
1398.2000, -64.899
1398.3000, -65.178
1398.4000, -64.905
1398.5000, -64.824
1398.6000, -64.853
1398.7000, -64.751
1398.8000, -64.683
1398.9000, -64.774
1399.0000, -64.941
1399.1000, -64.803
1399.2000, -64.877
1399.3000, -64.713
1399.4000, -64.523
1399.5000, -64.635
1399.6000, -64.607
1399.7000, -64.544
1399.8000, -64.489
1399.9000, -64.324
1400.0000, -64.310
1400.1000, -64.336
1400.2000, -64.242
1400.3000, -64.465
1400.4000, -64.471
1400.5000, -64.144
1400.6000, -64.078
1400.7000, -63.959
1400.8000, -63.849
1400.9000, -63.749
1401.0000, -63.864
1401.1000, -63.929
1401.2000, -63.759
1401.3000, -63.729
1401.4000, -63.665
1401.5000, -63.543
1401.6000, -63.468
1401.7000, -63.409
1401.8000, -63.340
1401.9000, -63.334
1402.0000, -63.409
1402.1000, -63.227
1402.2000, -63.106
1402.3000, -63.154
1402.4000, -63.183
1402.5000, -63.099
1402.6000, -63.125
1402.7000, -62.943
1402.8000, -62.952
1402.9000, -62.974
1403.0000, -62.952
1403.1000, -62.895
1403.2000, -62.821
1403.3000, -62.808
1403.4000, -62.677
1403.5000, -62.682
1403.6000, -62.679
1403.7000, -62.689
1403.8000, -62.474
1403.9000, -62.681
1404.0000, -62.638
1404.1000, -62.507
1404.2000, -62.518
1404.3000, -62.363
1404.4000, -62.552
1404.5000, -62.601
1404.6000, -62.473
1404.7000, -62.507
1404.8000, -62.330
1404.9000, -62.124
1405.0000, -62.071
1405.1000, -62.001
1405.2000, -61.915
1405.3000, -61.884
1405.4000, -61.893
1405.5000, -61.895
1405.6000, -61.802
1405.7000, -61.813
1405.8000, -61.706
1405.9000, -61.597
1406.0000, -61.587
1406.1000, -61.551
1406.2000, -61.596
1406.3000, -61.590
1406.4000, -61.538
1406.5000, -61.484
1406.6000, -61.473
1406.7000, -61.414
1406.8000, -61.400
1406.9000, -61.364
1407.0000, -61.315
1407.1000, -61.321
1407.2000, -61.220
1407.3000, -61.074
1407.4000, -61.062
1407.5000, -61.018
1407.6000, -60.926
1407.7000, -60.895
1407.8000, -60.883
1407.9000, -60.854
1408.0000, -60.760
1408.1000, -60.756
1408.2000, -60.679
1408.3000, -60.619
1408.4000, -60.623
1408.5000, -60.586
1408.6000, -60.596
1408.7000, -60.551
1408.8000, -60.490
1408.9000, -60.616
1409.0000, -60.601
1409.1000, -60.548
1409.2000, -60.454
1409.3000, -60.393
1409.4000, -60.340
1409.5000, -60.135
1409.6000, -60.119
1409.7000, -60.127
1409.8000, -60.100
1409.9000, -59.988
1410.0000, -59.980
1410.1000, -59.912
1410.2000, -59.900
1410.3000, -59.846
1410.4000, -59.778
1410.5000, -59.749
1410.6000, -59.761
1410.7000, -59.643
1410.8000, -59.652
1410.9000, -59.641
1411.0000, -59.585
1411.1000, -59.560
1411.2000, -59.435
1411.3000, -59.455
1411.4000, -59.373
1411.5000, -59.343
1411.6000, -59.400
1411.7000, -59.274
1411.8000, -59.310
1411.9000, -59.313
1412.0000, -59.220
1412.1000, -59.193
1412.2000, -59.088
1412.3000, -59.063
1412.4000, -58.994
1412.5000, -58.929
1412.6000, -58.888
1412.7000, -58.870
1412.8000, -58.864
1412.9000, -58.831
1413.0000, -58.815
1413.1000, -58.822
1413.2000, -58.706
1413.3000, -58.698
1413.4000, -58.613
1413.5000, -58.623
1413.6000, -58.670
1413.7000, -58.683
1413.8000, -58.659
1413.9000, -58.596
1414.0000, -58.458
1414.1000, -58.429
1414.2000, -58.369
1414.3000, -58.344
1414.4000, -58.342
1414.5000, -58.251
1414.6000, -58.221
1414.7000, -58.132
1414.8000, -58.108
1414.9000, -58.079
1415.0000, -58.064
1415.1000, -58.026
1415.2000, -57.958
1415.3000, -57.903
1415.4000, -57.870
1415.5000, -57.829
1415.6000, -57.788
1415.7000, -57.756
1415.8000, -57.766
1415.9000, -57.690
1416.0000, -57.646
1416.1000, -57.628
1416.2000, -57.580
1416.3000, -57.571
1416.4000, -57.487
1416.5000, -57.470
1416.6000, -57.395
1416.7000, -57.396
1416.8000, -57.357
1416.9000, -57.328
1417.0000, -57.324
1417.1000, -57.293
1417.2000, -57.245
1417.3000, -57.203
1417.4000, -57.146
1417.5000, -57.086
1417.6000, -57.090
1417.7000, -57.005
1417.8000, -57.010
1417.9000, -56.909
1418.0000, -56.896
1418.1000, -56.874
1418.2000, -56.817
1418.3000, -56.823
1418.4000, -56.797
1418.5000, -56.799
1418.6000, -56.763
1418.7000, -56.702
1418.8000, -56.641
1418.9000, -56.594
1419.0000, -56.582
1419.1000, -56.542
1419.2000, -56.463
1419.3000, -56.441
1419.4000, -56.396
1419.5000, -56.354
1419.6000, -56.334
1419.7000, -56.246
1419.8000, -56.228
1419.9000, -56.172
1420.0000, -56.109
1420.1000, -56.093
1420.2000, -56.091
1420.3000, -56.024
1420.4000, -55.992
1420.5000, -55.950
1420.6000, -55.875
1420.7000, -55.861
1420.8000, -55.849
1420.9000, -55.769
1421.0000, -55.735
1421.1000, -55.724
1421.2000, -55.657
1421.3000, -55.624
1421.4000, -55.563
1421.5000, -55.542
1421.6000, -55.519
1421.7000, -55.464
1421.8000, -55.421
1421.9000, -55.408
1422.0000, -55.348
1422.1000, -55.301
1422.2000, -55.293
1422.3000, -55.256
1422.4000, -55.219
1422.5000, -55.153
1422.6000, -55.131
1422.7000, -55.086
1422.8000, -55.051
1422.9000, -55.027
1423.0000, -55.007
1423.1000, -54.936
1423.2000, -54.916
1423.3000, -54.858
1423.4000, -54.861
1423.5000, -54.846
1423.6000, -54.797
1423.7000, -54.751
1423.8000, -54.696
1423.9000, -54.640
1424.0000, -54.569
1424.1000, -54.537
1424.2000, -54.492
1424.3000, -54.458
1424.4000, -54.441
1424.5000, -54.381
1424.6000, -54.322
1424.7000, -54.298
1424.8000, -54.302
1424.9000, -54.235
1425.0000, -54.213
1425.1000, -54.170
1425.2000, -54.118
1425.3000, -54.094
1425.4000, -54.040
1425.5000, -53.998
1425.6000, -53.961
1425.7000, -53.916
1425.8000, -53.889
1425.9000, -53.835
1426.0000, -53.786
1426.1000, -53.746
1426.2000, -53.721
1426.3000, -53.675
1426.4000, -53.631
1426.5000, -53.601
1426.6000, -53.556
1426.7000, -53.514
1426.8000, -53.487
1426.9000, -53.458
1427.0000, -53.400
1427.1000, -53.358
1427.2000, -53.327
1427.3000, -53.288
1427.4000, -53.247
1427.5000, -53.194
1427.6000, -53.173
1427.7000, -53.145
1427.8000, -53.116
1427.9000, -53.072
1428.0000, -53.019
1428.1000, -52.964
1428.2000, -52.936
1428.3000, -52.895
1428.4000, -52.852
1428.5000, -52.819
1428.6000, -52.796
1428.7000, -52.748
1428.8000, -52.689
1428.9000, -52.630
1429.0000, -52.606
1429.1000, -52.576
1429.2000, -52.539
1429.3000, -52.506
1429.4000, -52.469
1429.5000, -52.440
1429.6000, -52.394
1429.7000, -52.347
1429.8000, -52.298
1429.9000, -52.252
1430.0000, -52.215
1430.1000, -52.187
1430.2000, -52.143
1430.3000, -52.097
1430.4000, -52.071
1430.5000, -52.037
1430.6000, -52.012
1430.7000, -51.985
1430.8000, -51.946
1430.9000, -51.925
1431.0000, -51.878
1431.1000, -51.841
1431.2000, -51.786
1431.3000, -51.763
1431.4000, -51.728
1431.5000, -51.679
1431.6000, -51.639
1431.7000, -51.606
1431.8000, -51.563
1431.9000, -51.558
1432.0000, -51.523
1432.1000, -51.485
1432.2000, -51.465
1432.3000, -51.389
1432.4000, -51.342
1432.5000, -51.308
1432.6000, -51.263
1432.7000, -51.221
1432.8000, -51.193
1432.9000, -51.154
1433.0000, -51.119
1433.1000, -51.076
1433.2000, -51.051
1433.3000, -51.009
1433.4000, -50.987
1433.5000, -50.938
1433.6000, -50.911
1433.7000, -50.867
1433.8000, -50.853
1433.9000, -50.847
1434.0000, -50.814
1434.1000, -50.775
1434.2000, -50.734
1434.3000, -50.674
1434.4000, -50.612
1434.5000, -50.594
1434.6000, -50.563
1434.7000, -50.530
1434.8000, -50.486
1434.9000, -50.453
1435.0000, -50.415
1435.1000, -50.389
1435.2000, -50.352
1435.3000, -50.317
1435.4000, -50.274
1435.5000, -50.250
1435.6000, -50.223
1435.7000, -50.192
1435.8000, -50.152
1435.9000, -50.116
1436.0000, -50.066
1436.1000, -50.039
1436.2000, -49.998
1436.3000, -49.967
1436.4000, -49.928
1436.5000, -49.905
1436.6000, -49.865
1436.7000, -49.837
1436.8000, -49.811
1436.9000, -49.770
1437.0000, -49.745
1437.1000, -49.716
1437.2000, -49.699
1437.3000, -49.675
1437.4000, -49.645
1437.5000, -49.607
1437.6000, -49.560
1437.7000, -49.510
1437.8000, -49.465
1437.9000, -49.418
1438.0000, -49.381
1438.1000, -49.358
1438.2000, -49.321
1438.3000, -49.285
1438.4000, -49.255
1438.5000, -49.217
1438.6000, -49.194
1438.7000, -49.151
1438.8000, -49.129
1438.9000, -49.104
1439.0000, -49.083
1439.1000, -49.046
1439.2000, -49.024
1439.3000, -48.979
1439.4000, -48.930
1439.5000, -48.893
1439.6000, -48.847
1439.7000, -48.810
1439.8000, -48.782
1439.9000, -48.752
1440.0000, -48.727
1440.1000, -48.684
1440.2000, -48.648
1440.3000, -48.618
1440.4000, -48.582
1440.5000, -48.536
1440.6000, -48.506
1440.7000, -48.472
1440.8000, -48.441
1440.9000, -48.425
1441.0000, -48.407
1441.1000, -48.373
1441.2000, -48.333
1441.3000, -48.279
1441.4000, -48.217
1441.5000, -48.179
1441.6000, -48.140
1441.7000, -48.115
1441.8000, -48.079
1441.9000, -48.044
1442.0000, -48.003
1442.1000, -47.972
1442.2000, -47.932
1442.3000, -47.909
1442.4000, -47.886
1442.5000, -47.850
1442.6000, -47.815
1442.7000, -47.774
1442.8000, -47.724
1442.9000, -47.687
1443.0000, -47.643
1443.1000, -47.603
1443.2000, -47.568
1443.3000, -47.543
1443.4000, -47.510
1443.5000, -47.473
1443.6000, -47.436
1443.7000, -47.403
1443.8000, -47.376
1443.9000, -47.345
1444.0000, -47.304
1444.1000, -47.265
1444.2000, -47.224
1444.3000, -47.191
1444.4000, -47.155
1444.5000, -47.119
1444.6000, -47.088
1444.7000, -47.056
1444.8000, -47.027
1444.9000, -46.996
1445.0000, -46.975
1445.1000, -46.963
1445.2000, -46.949
1445.3000, -46.940
1445.4000, -46.906
1445.5000, -46.847
1445.6000, -46.795
1445.7000, -46.731
1445.8000, -46.691
1445.9000, -46.658
1446.0000, -46.623
1446.1000, -46.589
1446.2000, -46.553
1446.3000, -46.528
1446.4000, -46.497
1446.5000, -46.467
1446.6000, -46.440
1446.7000, -46.401
1446.8000, -46.367
1446.9000, -46.332
1447.0000, -46.297
1447.1000, -46.265
1447.2000, -46.228
1447.3000, -46.190
1447.4000, -46.157
1447.5000, -46.123
1447.6000, -46.093
1447.7000, -46.062
1447.8000, -46.027
1447.9000, -45.994
1448.0000, -45.965
1448.1000, -45.926
1448.2000, -45.895
1448.3000, -45.862
1448.4000, -45.833
1448.5000, -45.798
1448.6000, -45.764
1448.7000, -45.731
1448.8000, -45.692
1448.9000, -45.662
1449.0000, -45.630
1449.1000, -45.591
1449.2000, -45.559
1449.3000, -45.527
1449.4000, -45.494
1449.5000, -45.462
1449.6000, -45.432
1449.7000, -45.399
1449.8000, -45.362
1449.9000, -45.332
1450.0000, -45.310
1450.1000, -45.295
1450.2000, -45.263
1450.3000, -45.226
1450.4000, -45.185
1450.5000, -45.134
1450.6000, -45.098
1450.7000, -45.060
1450.8000, -45.025
1450.9000, -44.990
1451.0000, -44.948
1451.1000, -44.909
1451.2000, -44.869
1451.3000, -44.835
1451.4000, -44.799
1451.5000, -44.766
1451.6000, -44.736
1451.7000, -44.707
1451.8000, -44.674
1451.9000, -44.640
1452.0000, -44.603
1452.1000, -44.562
1452.2000, -44.524
1452.3000, -44.485
1452.4000, -44.457
1452.5000, -44.423
1452.6000, -44.390
1452.7000, -44.352
1452.8000, -44.309
1452.9000, -44.272
1453.0000, -44.236
1453.1000, -44.200
1453.2000, -44.164
1453.3000, -44.128
1453.4000, -44.091
1453.5000, -44.058
1453.6000, -44.028
1453.7000, -43.995
1453.8000, -43.962
1453.9000, -43.926
1454.0000, -43.889
1454.1000, -43.856
1454.2000, -43.821
1454.3000, -43.783
1454.4000, -43.749
1454.5000, -43.716
1454.6000, -43.683
1454.7000, -43.654
1454.8000, -43.634
1454.9000, -43.599
1455.0000, -43.569
1455.1000, -43.534
1455.2000, -43.481
1455.3000, -43.443
1455.4000, -43.407
1455.5000, -43.375
1455.6000, -43.338
1455.7000, -43.307
1455.8000, -43.270
1455.9000, -43.232
1456.0000, -43.198
1456.1000, -43.165
1456.2000, -43.131
1456.3000, -43.096
1456.4000, -43.065
1456.5000, -43.027
1456.6000, -42.995
1456.7000, -42.961
1456.8000, -42.930
1456.9000, -42.893
1457.0000, -42.856
1457.1000, -42.823
1457.2000, -42.792
1457.3000, -42.754
1457.4000, -42.722
1457.5000, -42.684
1457.6000, -42.648
1457.7000, -42.613
1457.8000, -42.579
1457.9000, -42.543
1458.0000, -42.505
1458.1000, -42.470
1458.2000, -42.438
1458.3000, -42.405
1458.4000, -42.365
1458.5000, -42.328
1458.6000, -42.291
1458.7000, -42.255
1458.8000, -42.218
1458.9000, -42.182
1459.0000, -42.147
1459.1000, -42.110
1459.2000, -42.080
1459.3000, -42.043
1459.4000, -42.006
1459.5000, -41.968
1459.6000, -41.936
1459.7000, -41.906
1459.8000, -41.884
1459.9000, -41.851
1460.0000, -41.813
1460.1000, -41.774
1460.2000, -41.726
1460.3000, -41.689
1460.4000, -41.655
1460.5000, -41.616
1460.6000, -41.581
1460.7000, -41.547
1460.8000, -41.515
1460.9000, -41.481
1461.0000, -41.446
1461.1000, -41.408
1461.2000, -41.370
1461.3000, -41.337
1461.4000, -41.304
1461.5000, -41.270
1461.6000, -41.236
1461.7000, -41.200
1461.8000, -41.166
1461.9000, -41.132
1462.0000, -41.096
1462.1000, -41.063
1462.2000, -41.028
1462.3000, -40.997
1462.4000, -40.967
1462.5000, -40.932
1462.6000, -40.901
1462.7000, -40.882
1462.8000, -40.850
1462.9000, -40.816
1463.0000, -40.778
1463.1000, -40.727
1463.2000, -40.686
1463.3000, -40.650
1463.4000, -40.618
1463.5000, -40.583
1463.6000, -40.548
1463.7000, -40.512
1463.8000, -40.478
1463.9000, -40.445
1464.0000, -40.409
1464.1000, -40.372
1464.2000, -40.335
1464.3000, -40.303
1464.4000, -40.269
1464.5000, -40.234
1464.6000, -40.201
1464.7000, -40.170
1464.8000, -40.142
1464.9000, -40.107
1465.0000, -40.067
1465.1000, -40.023
1465.2000, -39.979
1465.3000, -39.943
1465.4000, -39.908
1465.5000, -39.873
1465.6000, -39.841
1465.7000, -39.801
1465.8000, -39.765
1465.9000, -39.733
1466.0000, -39.695
1466.1000, -39.659
1466.2000, -39.621
1466.3000, -39.582
1466.4000, -39.549
1466.5000, -39.522
1466.6000, -39.489
1466.7000, -39.454
1466.8000, -39.419
1466.9000, -39.378
1467.0000, -39.340
1467.1000, -39.302
1467.2000, -39.272
1467.3000, -39.240
1467.4000, -39.204
1467.5000, -39.172
1467.6000, -39.137
1467.7000, -39.093
1467.8000, -39.056
1467.9000, -39.023
1468.0000, -38.992
1468.1000, -38.956
1468.2000, -38.921
1468.3000, -38.886
1468.4000, -38.854
1468.5000, -38.820
1468.6000, -38.786
1468.7000, -38.749
1468.8000, -38.716
1468.9000, -38.683
1469.0000, -38.655
1469.1000, -38.637
1469.2000, -38.607
1469.3000, -38.572
1469.4000, -38.537
1469.5000, -38.482
1469.6000, -38.438
1469.7000, -38.403
1469.8000, -38.368
1469.9000, -38.337
1470.0000, -38.304
1470.1000, -38.279
1470.2000, -38.255
1470.3000, -38.220
1470.4000, -38.186
1470.5000, -38.152
1470.6000, -38.103
1470.7000, -38.064
1470.8000, -38.025
1470.9000, -37.982
1471.0000, -37.940
1471.1000, -37.902
1471.2000, -37.865
1471.3000, -37.828
1471.4000, -37.794
1471.5000, -37.758
1471.6000, -37.722
1471.7000, -37.688
1471.8000, -37.671
1471.9000, -37.638
1472.0000, -37.604
1472.1000, -37.569
1472.2000, -37.515
1472.3000, -37.470
1472.4000, -37.429
1472.5000, -37.390
1472.6000, -37.355
1472.7000, -37.322
1472.8000, -37.287
1472.9000, -37.253
1473.0000, -37.219
1473.1000, -37.184
1473.2000, -37.156
1473.3000, -37.121
1473.4000, -37.086
1473.5000, -37.048
1473.6000, -37.008
1473.7000, -36.967
1473.8000, -36.928
1473.9000, -36.895
1474.0000, -36.862
1474.1000, -36.831
1474.2000, -36.798
1474.3000, -36.763
1474.4000, -36.730
1474.5000, -36.696
1474.6000, -36.663
1474.7000, -36.628
1474.8000, -36.592
1474.9000, -36.556
1475.0000, -36.521
1475.1000, -36.489
1475.2000, -36.457
1475.3000, -36.424
1475.4000, -36.395
1475.5000, -36.364
1475.6000, -36.330
1475.7000, -36.292
1475.8000, -36.254
1475.9000, -36.213
1476.0000, -36.177
1476.1000, -36.142
1476.2000, -36.106
1476.3000, -36.072
1476.4000, -36.036
1476.5000, -36.007
1476.6000, -35.974
1476.7000, -35.933
1476.8000, -35.896
1476.9000, -35.851
1477.0000, -35.809
1477.1000, -35.772
1477.2000, -35.736
1477.3000, -35.714
1477.4000, -35.680
1477.5000, -35.642
1477.6000, -35.608
1477.7000, -35.558
1477.8000, -35.512
1477.9000, -35.474
1478.0000, -35.434
1478.1000, -35.396
1478.2000, -35.358
1478.3000, -35.319
1478.4000, -35.283
1478.5000, -35.247
1478.6000, -35.210
1478.7000, -35.173
1478.8000, -35.136
1478.9000, -35.101
1479.0000, -35.071
1479.1000, -35.038
1479.2000, -35.001
1479.3000, -34.963
1479.4000, -34.923
1479.5000, -34.888
1479.6000, -34.856
1479.7000, -34.824
1479.8000, -34.799
1479.9000, -34.769
1480.0000, -34.735
1480.1000, -34.707
1480.2000, -34.674
1480.3000, -34.635
1480.4000, -34.601
1480.5000, -34.566
1480.6000, -34.530
1480.7000, -34.500
1480.8000, -34.468
1480.9000, -34.436
1481.0000, -34.402
1481.1000, -34.375
1481.2000, -34.354
1481.3000, -34.324
1481.4000, -34.293
1481.5000, -34.260
1481.6000, -34.225
1481.7000, -34.193
1481.8000, -34.159
1481.9000, -34.123
1482.0000, -34.085
1482.1000, -34.049
1482.2000, -34.013
1482.3000, -33.978
1482.4000, -33.941
1482.5000, -33.905
1482.6000, -33.872
1482.7000, -33.836
1482.8000, -33.802
1482.9000, -33.763
1483.0000, -33.727
1483.1000, -33.692
1483.2000, -33.653
1483.3000, -33.614
1483.4000, -33.575
1483.5000, -33.535
1483.6000, -33.497
1483.7000, -33.459
1483.8000, -33.422
1483.9000, -33.383
1484.0000, -33.343
1484.1000, -33.304
1484.2000, -33.266
1484.3000, -33.225
1484.4000, -33.186
1484.5000, -33.146
1484.6000, -33.108
1484.7000, -33.073
1484.8000, -33.034
1484.9000, -32.992
1485.0000, -32.954
1485.1000, -32.915
1485.2000, -32.878
1485.3000, -32.841
1485.4000, -32.803
1485.5000, -32.767
1485.6000, -32.735
1485.7000, -32.701
1485.8000, -32.671
1485.9000, -32.640
1486.0000, -32.612
1486.1000, -32.587
1486.2000, -32.564
1486.3000, -32.535
1486.4000, -32.502
1486.5000, -32.470
1486.6000, -32.437
1486.7000, -32.407
1486.8000, -32.381
1486.9000, -32.353
1487.0000, -32.326
1487.1000, -32.299
1487.2000, -32.275
1487.3000, -32.252
1487.4000, -32.232
1487.5000, -32.208
1487.6000, -32.187
1487.7000, -32.164
1487.8000, -32.138
1487.9000, -32.111
1488.0000, -32.083
1488.1000, -32.054
1488.2000, -32.028
1488.3000, -31.999
1488.4000, -31.970
1488.5000, -31.940
1488.6000, -31.912
1488.7000, -31.886
1488.8000, -31.860
1488.9000, -31.831
1489.0000, -31.802
1489.1000, -31.774
1489.2000, -31.747
1489.3000, -31.716
1489.4000, -31.682
1489.5000, -31.644
1489.6000, -31.605
1489.7000, -31.566
1489.8000, -31.529
1489.9000, -31.490
1490.0000, -31.448
1490.1000, -31.406
1490.2000, -31.366
1490.3000, -31.325
1490.4000, -31.280
1490.5000, -31.238
1490.6000, -31.194
1490.7000, -31.152
1490.8000, -31.111
1490.9000, -31.071
1491.0000, -31.031
1491.1000, -30.989
1491.2000, -30.945
1491.3000, -30.902
1491.4000, -30.860
1491.5000, -30.821
1491.6000, -30.785
1491.7000, -30.751
1491.8000, -30.715
1491.9000, -30.676
1492.0000, -30.640
1492.1000, -30.604
1492.2000, -30.571
1492.3000, -30.540
1492.4000, -30.506
1492.5000, -30.475
1492.6000, -30.443
1492.7000, -30.415
1492.8000, -30.385
1492.9000, -30.355
1493.0000, -30.327
1493.1000, -30.301
1493.2000, -30.278
1493.3000, -30.256
1493.4000, -30.235
1493.5000, -30.215
1493.6000, -30.198
1493.7000, -30.183
1493.8000, -30.170
1493.9000, -30.156
1494.0000, -30.141
1494.1000, -30.122
1494.2000, -30.105
1494.3000, -30.087
1494.4000, -30.068
1494.5000, -30.049
1494.6000, -30.029
1494.7000, -30.011
1494.8000, -29.992
1494.9000, -29.974
1495.0000, -29.954
1495.1000, -29.931
1495.2000, -29.913
1495.3000, -29.892
1495.4000, -29.871
1495.5000, -29.846
1495.6000, -29.821
1495.7000, -29.794
1495.8000, -29.764
1495.9000, -29.730
1496.0000, -29.694
1496.1000, -29.656
1496.2000, -29.616
1496.3000, -29.578
1496.4000, -29.536
1496.5000, -29.493
1496.6000, -29.451
1496.7000, -29.409
1496.8000, -29.369
1496.9000, -29.329
1497.0000, -29.288
1497.1000, -29.247
1497.2000, -29.207
1497.3000, -29.167
1497.4000, -29.124
1497.5000, -29.082
1497.6000, -29.036
1497.7000, -28.989
1497.8000, -28.942
1497.9000, -28.896
1498.0000, -28.846
1498.1000, -28.799
1498.2000, -28.751
1498.3000, -28.705
1498.4000, -28.661
1498.5000, -28.619
1498.6000, -28.582
1498.7000, -28.547
1498.8000, -28.514
1498.9000, -28.484
1499.0000, -28.456
1499.1000, -28.431
1499.2000, -28.410
1499.3000, -28.390
1499.4000, -28.370
1499.5000, -28.350
1499.6000, -28.330
1499.7000, -28.312
1499.8000, -28.292
1499.9000, -28.271
1500.0000, -28.249
1500.1000, -28.227
1500.2000, -28.207
1500.3000, -28.189
1500.4000, -28.170
1500.5000, -28.150
1500.6000, -28.130
1500.7000, -28.112
1500.8000, -28.097
1500.9000, -28.084
1501.0000, -28.069
1501.1000, -28.055
1501.2000, -28.042
1501.3000, -28.029
1501.4000, -28.014
1501.5000, -27.998
1501.6000, -27.982
1501.7000, -27.961
1501.8000, -27.942
1501.9000, -27.919
1502.0000, -27.892
1502.1000, -27.861
1502.2000, -27.829
1502.3000, -27.794
1502.4000, -27.753
1502.5000, -27.712
1502.6000, -27.672
1502.7000, -27.633
1502.8000, -27.595
1502.9000, -27.558
1503.0000, -27.517
1503.1000, -27.475
1503.2000, -27.434
1503.3000, -27.394
1503.4000, -27.350
1503.5000, -27.305
1503.6000, -27.259
1503.7000, -27.212
1503.8000, -27.164
1503.9000, -27.116
1504.0000, -27.065
1504.1000, -27.013
1504.2000, -26.962
1504.3000, -26.910
1504.4000, -26.860
1504.5000, -26.809
1504.6000, -26.757
1504.7000, -26.707
1504.8000, -26.660
1504.9000, -26.614
1505.0000, -26.571
1505.1000, -26.532
1505.2000, -26.494
1505.3000, -26.462
1505.4000, -26.433
1505.5000, -26.406
1505.6000, -26.384
1505.7000, -26.364
1505.8000, -26.346
1505.9000, -26.328
1506.0000, -26.311
1506.1000, -26.295
1506.2000, -26.281
1506.3000, -26.270
1506.4000, -26.259
1506.5000, -26.247
1506.6000, -26.234
1506.7000, -26.225
1506.8000, -26.216
1506.9000, -26.208
1507.0000, -26.199
1507.1000, -26.189
1507.2000, -26.180
1507.3000, -26.172
1507.4000, -26.163
1507.5000, -26.153
1507.6000, -26.140
1507.7000, -26.126
1507.8000, -26.111
1507.9000, -26.092
1508.0000, -26.071
1508.1000, -26.045
1508.2000, -26.015
1508.3000, -25.982
1508.4000, -25.943
1508.5000, -25.900
1508.6000, -25.854
1508.7000, -25.803
1508.8000, -25.749
1508.9000, -25.694
1509.0000, -25.635
1509.1000, -25.575
1509.2000, -25.518
1509.3000, -25.460
1509.4000, -25.401
1509.5000, -25.343
1509.6000, -25.286
1509.7000, -25.231
1509.8000, -25.179
1509.9000, -25.128
1510.0000, -25.074
1510.1000, -25.018
1510.2000, -24.961
1510.3000, -24.905
1510.4000, -24.849
1510.5000, -24.788
1510.6000, -24.724
1510.7000, -24.660
1510.8000, -24.595
1510.9000, -24.527
1511.0000, -24.460
1511.1000, -24.393
1511.2000, -24.327
1511.3000, -24.266
1511.4000, -24.206
1511.5000, -24.148
1511.6000, -24.096
1511.7000, -24.048
1511.8000, -24.007
1511.9000, -23.971
1512.0000, -23.942
1512.1000, -23.919
1512.2000, -23.905
1512.3000, -23.897
1512.4000, -23.896
1512.5000, -23.901
1512.6000, -23.913
1512.7000, -23.933
1512.8000, -23.959
1512.9000, -23.990
1513.0000, -24.025
1513.1000, -24.062
1513.2000, -24.105
1513.3000, -24.148
1513.4000, -24.189
1513.5000, -24.225
1513.6000, -24.259
1513.7000, -24.291
1513.8000, -24.323
1513.9000, -24.351
1514.0000, -24.373
1514.1000, -24.388
1514.2000, -24.395
1514.3000, -24.397
1514.4000, -24.392
1514.5000, -24.380
1514.6000, -24.360
1514.7000, -24.330
1514.8000, -24.291
1514.9000, -24.244
1515.0000, -24.187
1515.1000, -24.123
1515.2000, -24.055
1515.3000, -23.982
1515.4000, -23.905
1515.5000, -23.821
1515.6000, -23.734
1515.7000, -23.646
1515.8000, -23.555
1515.9000, -23.460
1516.0000, -23.361
1516.1000, -23.260
1516.2000, -23.158
1516.3000, -23.058
1516.4000, -22.957
1516.5000, -22.852
1516.6000, -22.744
1516.7000, -22.635
1516.8000, -22.529
1516.9000, -22.419
1517.0000, -22.309
1517.1000, -22.197
1517.2000, -22.086
1517.3000, -21.976
1517.4000, -21.870
1517.5000, -21.762
1517.6000, -21.653
1517.7000, -21.545
1517.8000, -21.442
1517.9000, -21.338
1518.0000, -21.239
1518.1000, -21.144
1518.2000, -21.053
1518.3000, -20.971
1518.4000, -20.895
1518.5000, -20.824
1518.6000, -20.762
1518.7000, -20.707
1518.8000, -20.659
1518.9000, -20.625
1519.0000, -20.586
1519.1000, -20.564
1519.2000, -20.553
1519.3000, -20.556
1519.4000, -20.572
1519.5000, -20.596
1519.6000, -20.628
1519.7000, -20.671
1519.8000, -20.722
1519.9000, -20.785
1520.0000, -20.855
1520.1000, -20.936
1520.2000, -21.023
1520.3000, -21.115
1520.4000, -21.215
1520.5000, -21.318
1520.6000, -21.425
1520.7000, -21.536
1520.8000, -21.648
1520.9000, -21.762
1521.0000, -21.869
1521.1000, -21.969
1521.2000, -22.061
1521.3000, -22.139
1521.4000, -22.201
1521.5000, -22.244
1521.6000, -22.270
1521.7000, -22.274
1521.8000, -22.254
1521.9000, -22.209
1522.0000, -22.141
1522.1000, -22.050
1522.2000, -21.938
1522.3000, -21.809
1522.4000, -21.659
1522.5000, -21.495
1522.6000, -21.314
1522.7000, -21.123
1522.8000, -20.929
1522.9000, -20.732
1523.0000, -20.527
1523.1000, -20.320
1523.2000, -20.110
1523.3000, -19.903
1523.4000, -19.698
1523.5000, -19.497
1523.6000, -19.300
1523.7000, -19.111
1523.8000, -18.928
1523.9000, -18.751
1524.0000, -18.580
1524.1000, -18.421
1524.2000, -18.272
1524.3000, -18.127
1524.4000, -17.985
1524.5000, -17.846
1524.6000, -17.713
1524.7000, -17.585
1524.8000, -17.465
1524.9000, -17.349
1525.0000, -17.237
1525.1000, -17.132
1525.2000, -17.033
1525.3000, -16.943
1525.4000, -16.853
1525.5000, -16.767
1525.6000, -16.682
1525.7000, -16.601
1525.8000, -16.526
1525.9000, -16.458
1526.0000, -16.396
1526.1000, -16.337
1526.2000, -16.284
1526.3000, -16.238
1526.4000, -16.199
1526.5000, -16.168
1526.6000, -16.147
1526.7000, -16.135
1526.8000, -16.136
1526.9000, -16.149
1527.0000, -16.174
1527.1000, -16.211
1527.2000, -16.260
1527.3000, -16.318
1527.4000, -16.381
1527.5000, -16.452
1527.6000, -16.533
1527.7000, -16.622
1527.8000, -16.721
1527.9000, -16.828
1528.0000, -16.935
1528.1000, -17.040
1528.2000, -17.143
1528.3000, -17.242
1528.4000, -17.336
1528.5000, -17.422
1528.6000, -17.501
1528.7000, -17.572
1528.8000, -17.631
1528.9000, -17.675
1529.0000, -17.701
1529.1000, -17.706
1529.2000, -17.694
1529.3000, -17.665
1529.4000, -17.617
1529.5000, -17.552
1529.6000, -17.466
1529.7000, -17.360
1529.8000, -17.232
1529.9000, -17.081
1530.0000, -16.906
1530.1000, -16.715
1530.2000, -16.501
1530.3000, -16.265
1530.4000, -16.008
1530.5000, -15.734
1530.6000, -15.446
1530.7000, -15.159
1530.8000, -14.874
1530.9000, -14.596
1531.0000, -14.328
1531.1000, -14.072
1531.2000, -13.832
1531.3000, -13.606
1531.4000, -13.393
1531.5000, -13.193
1531.6000, -13.011
1531.7000, -12.846
1531.8000, -12.696
1531.9000, -12.563
1532.0000, -12.450
1532.1000, -12.356
1532.2000, -12.277
1532.3000, -12.210
1532.4000, -12.156
1532.5000, -12.111
1532.6000, -12.076
1532.7000, -12.050
1532.8000, -12.033
1532.9000, -12.022
1533.0000, -12.023
1533.1000, -12.034
1533.2000, -12.057
1533.3000, -12.091
1533.4000, -12.135
1533.5000, -12.184
1533.6000, -12.241
1533.7000, -12.302
1533.8000, -12.367
1533.9000, -12.435
1534.0000, -12.504
1534.1000, -12.575
1534.2000, -12.646
1534.3000, -12.719
1534.4000, -12.792
1534.5000, -12.867
1534.6000, -12.947
1534.7000, -13.028
1534.8000, -13.107
1534.9000, -13.182
1535.0000, -13.254
1535.1000, -13.325
1535.2000, -13.400
1535.3000, -13.483
1535.4000, -13.564
1535.5000, -13.643
1535.6000, -13.716
1535.7000, -13.781
1535.8000, -13.840
1535.9000, -13.894
1536.0000, -13.944
1536.1000, -13.991
1536.2000, -14.033
1536.3000, -14.071
1536.4000, -14.098
1536.5000, -14.111
1536.6000, -14.104
1536.7000, -14.076
1536.8000, -14.034
1536.9000, -13.980
1537.0000, -13.920
1537.1000, -13.850
1537.2000, -13.776
1537.3000, -13.693
1537.4000, -13.601
1537.5000, -13.498
1537.6000, -13.379
1537.7000, -13.246
1537.8000, -13.107
1537.9000, -12.964
1538.0000, -12.826
1538.1000, -12.692
1538.2000, -12.564
1538.3000, -12.437
1538.4000, -12.313
1538.5000, -12.195
1538.6000, -12.084
1538.7000, -11.981
1538.8000, -11.882
1538.9000, -11.777
1539.0000, -11.660
1539.1000, -11.523
1539.2000, -11.364
1539.3000, -11.189
1539.4000, -11.006
1539.5000, -10.818
1539.6000, -10.638
1539.7000, -10.413
1539.8000, -10.202
1539.9000,  -9.975
1540.0000,  -9.735
1540.1000,  -9.503
1540.2000,  -9.261
1540.3000,  -9.034
1540.4000,  -8.829
1540.5000,  -8.650
1540.6000,  -8.499
1540.7000,  -8.374
1540.8000,  -8.278
1540.9000,  -8.211
1541.0000,  -8.184
1541.1000,  -8.202
1541.2000,  -8.284
1541.3000,  -8.431
1541.4000,  -8.656
1541.5000,  -8.966
1541.6000,  -9.374
1541.7000,  -9.885
1541.8000, -10.509
1541.9000, -11.246
1542.0000, -12.107
1542.1000, -13.095
1542.2000, -14.296
1542.3000, -15.702
1542.4000, -17.365
1542.5000, -19.301
1542.6000, -21.443
1542.7000, -23.843
1542.8000, -26.395
1542.9000, -28.397
1543.0000, -29.342
1543.1000, -28.627
1543.2000, -26.562
1543.3000, -24.497
1543.4000, -22.789
1543.5000, -21.542
1543.6000, -20.765
1543.7000, -20.404
1543.8000, -20.293
1543.9000, -20.418
1544.0000, -20.626
1544.1000, -20.823
1544.2000, -21.081
1544.3000, -21.296
1544.4000, -21.510
1544.5000, -21.751
1544.6000, -21.984
1544.7000, -22.188
1544.8000, -22.499
1544.9000, -22.735
1545.0000, -22.952
1545.1000, -23.051
1545.2000, -22.984
1545.3000, -22.814
1545.4000, -22.565
1545.5000, -21.985
1545.6000, -21.129
1545.7000, -20.127
1545.8000, -19.080
1545.9000, -18.130
1546.0000, -17.284
1546.1000, -16.363
1546.2000, -15.342
1546.3000, -14.283
1546.4000, -13.277
1546.5000, -12.502
1546.6000, -11.942
1546.7000, -11.549
1546.8000, -11.184
1546.9000, -10.769
1547.0000, -10.160
1547.1000,  -9.655
1547.2000,  -9.275
1547.3000,  -9.053
1547.4000,  -8.912
1547.5000,  -8.681
1547.6000,  -8.360
1547.7000,  -8.076
1547.8000,  -7.960
1547.9000,  -8.047
1548.0000,  -8.254
1548.1000,  -8.355
1548.2000,  -8.274
1548.3000,  -8.074
1548.4000,  -7.893
1548.5000,  -7.850
1548.6000,  -7.919
1548.7000,  -7.962
1548.8000,  -7.883
1548.9000,  -7.692
1549.0000,  -7.478
1549.1000,  -7.362
1549.2000,  -7.309
1549.3000,  -7.203
1549.4000,  -6.935
1549.5000,  -6.508
1549.6000,  -6.024
1549.7000,  -5.614
1549.8000,  -5.266
1549.9000,  -4.926
1550.0000,  -4.556
1550.1000,  -4.142
1550.2000,  -3.730
1550.3000,  -3.362
1550.4000,  -3.026
1550.5000,  -2.695
1550.6000,  -2.392
1550.7000,  -2.103
1550.8000,  -1.864
1550.9000,  -1.679
1551.0000,  -1.533
1551.1000,  -1.414
1551.2000,  -1.328
1551.3000,  -1.260
1551.4000,  -1.242
1551.5000,  -1.271
1551.6000,  -1.348
1551.7000,  -1.490
1551.8000,  -1.693
1551.9000,  -1.962
1552.0000,  -2.302
1552.1000,  -2.709
1552.2000,  -3.166
1552.3000,  -3.697
1552.4000,  -4.304
1552.5000,  -5.036
1552.6000,  -5.895
1552.7000,  -6.784
1552.8000,  -7.623
1552.9000,  -8.409
1553.0000,  -9.175
1553.1000,  -9.908
1553.2000, -10.327
1553.3000, -10.055
1553.4000,  -9.231
1553.5000,  -8.303
1553.6000,  -7.489
1553.7000,  -6.769
1553.8000,  -6.008
1553.9000,  -5.163
1554.0000,  -4.376
1554.1000,  -3.806
1554.2000,  -3.520
1554.3000,  -3.474
1554.4000,  -3.546
1554.5000,  -3.536
1554.6000,  -3.421
1554.7000,  -3.288
1554.8000,  -3.285
1554.9000,  -3.516
1555.0000,  -3.939
1555.1000,  -4.457
1555.2000,  -5.012
1555.3000,  -5.666
1555.4000,  -6.593
1555.5000,  -8.016
1555.6000, -10.066
1555.7000, -12.596
1555.8000, -14.830
1555.9000, -14.893
1556.0000, -13.969
1556.1000, -13.072
1556.2000, -12.488
1556.3000, -12.061
1556.4000, -11.799
1556.5000, -11.679
1556.6000, -11.632
1556.7000, -11.624
1556.8000, -11.619
1556.9000, -11.609
1557.0000, -11.587
1557.1000, -11.551
1557.2000, -11.503
1557.3000, -11.439
1557.4000, -11.362
1557.5000, -11.269
1557.6000, -11.169
1557.7000, -11.067
1557.8000, -10.971
1557.9000, -10.895
1558.0000, -10.844
1558.1000, -10.817
1558.2000, -10.812
1558.3000, -10.818
1558.4000, -10.827
1558.5000, -10.839
1558.6000, -10.859
1558.7000, -10.902
1558.8000, -10.978
1558.9000, -11.083
1559.0000, -11.216
1559.1000, -11.367
1559.2000, -11.529
1559.3000, -11.695
1559.4000, -11.864
1559.5000, -12.041
1559.6000, -12.223
1559.7000, -12.408
1559.8000, -12.586
1559.9000, -12.752
1560.0000, -12.896
1560.1000, -13.017
1560.2000, -13.112
1560.3000, -13.183
1560.4000, -13.230
1560.5000, -13.261
1560.6000, -13.287
1560.7000, -13.315
1560.8000, -13.352
1560.9000, -13.403
1561.0000, -13.470
1561.1000, -13.552
1561.2000, -13.647
1561.3000, -13.754
1561.4000, -13.868
1561.5000, -13.986
1561.6000, -14.121
1561.7000, -14.264
1561.8000, -14.437
1561.9000, -14.647
1562.0000, -14.908
1562.1000, -15.203
1562.2000, -15.532
1562.3000, -15.876
1562.4000, -16.216
1562.5000, -16.515
1562.6000, -16.726
1562.7000, -16.815
1562.8000, -16.770
1562.9000, -16.587
1563.0000, -16.279
1563.1000, -15.879
1563.2000, -15.413
1563.3000, -14.914
1563.4000, -14.403
1563.5000, -13.906
1563.6000, -13.420
1563.7000, -12.983
1563.8000, -12.590
1563.9000, -12.254
1564.0000, -11.980
1564.1000, -11.773
1564.2000, -11.644
1564.3000, -11.593
1564.4000, -11.624
1564.5000, -11.732
1564.6000, -11.914
1564.7000, -12.173
1564.8000, -12.488
1564.9000, -12.866
1565.0000, -13.304
1565.1000, -13.806
1565.2000, -14.348
1565.3000, -14.933
1565.4000, -15.542
1565.5000, -16.108
1565.6000, -16.582
1565.7000, -16.916
1565.8000, -17.064
1565.9000, -17.025
1566.0000, -16.824
1566.1000, -16.511
1566.2000, -16.152
1566.3000, -15.786
1566.4000, -15.455
1566.5000, -15.184
1566.6000, -14.990
1566.7000, -14.880
1566.8000, -14.861
1566.9000, -14.939
1567.0000, -15.104
1567.1000, -15.358
1567.2000, -15.691
1567.3000, -16.064
1567.4000, -16.452
1567.5000, -16.824
1567.6000, -17.123
1567.7000, -17.321
1567.8000, -17.397
1567.9000, -17.353
1568.0000, -17.213
1568.1000, -17.021
1568.2000, -16.819
1568.3000, -16.635
1568.4000, -16.489
1568.5000, -16.380
1568.6000, -16.307
1568.7000, -16.268
1568.8000, -16.249
1568.9000, -16.238
1569.0000, -16.224
1569.1000, -16.200
1569.2000, -16.160
1569.3000, -16.097
1569.4000, -16.012
1569.5000, -15.906
1569.6000, -15.783
1569.7000, -15.645
1569.8000, -15.498
1569.9000, -15.348
1570.0000, -15.202
1570.1000, -15.063
1570.2000, -14.927
1570.3000, -14.802
1570.4000, -14.678
1570.5000, -14.552
1570.6000, -14.420
1570.7000, -14.285
1570.8000, -14.147
1570.9000, -14.006
1571.0000, -13.862
1571.1000, -13.715
1571.2000, -13.569
1571.3000, -13.428
1571.4000, -13.300
1571.5000, -13.185
1571.6000, -13.087
1571.7000, -13.003
1571.8000, -12.930
1571.9000, -12.866
1572.0000, -12.812
1572.1000, -12.768
1572.2000, -12.734
1572.3000, -12.712
1572.4000, -12.705
1572.5000, -12.712
1572.6000, -12.734
1572.7000, -12.773
1572.8000, -12.829
1572.9000, -12.897
1573.0000, -12.973
1573.1000, -13.051
1573.2000, -13.129
1573.3000, -13.210
1573.4000, -13.291
1573.5000, -13.373
1573.6000, -13.453
1573.7000, -13.532
1573.8000, -13.607
1573.9000, -13.677
1574.0000, -13.746
1574.1000, -13.816
1574.2000, -13.881
1574.3000, -13.944
1574.4000, -14.002
1574.5000, -14.055
1574.6000, -14.104
1574.7000, -14.150
1574.8000, -14.194
1574.9000, -14.234
1575.0000, -14.272
1575.1000, -14.311
1575.2000, -14.357
1575.3000, -14.414
1575.4000, -14.488
1575.5000, -14.578
1575.6000, -14.684
1575.7000, -14.806
1575.8000, -14.943
1575.9000, -15.089
1576.0000, -15.243
1576.1000, -15.404
1576.2000, -15.571
1576.3000, -15.734
1576.4000, -15.895
1576.5000, -16.046
1576.6000, -16.187
1576.7000, -16.312
1576.8000, -16.421
1576.9000, -16.510
1577.0000, -16.578
1577.1000, -16.621
1577.2000, -16.643
1577.3000, -16.641
1577.4000, -16.614
1577.5000, -16.562
1577.6000, -16.487
1577.7000, -16.395
1577.8000, -16.290
1577.9000, -16.179
1578.0000, -16.066
1578.1000, -15.953
1578.2000, -15.841
1578.3000, -15.730
1578.4000, -15.623
1578.5000, -15.518
1578.6000, -15.417
1578.7000, -15.321
1578.8000, -15.228
1578.9000, -15.137
1579.0000, -15.051
1579.1000, -14.971
1579.2000, -14.895
1579.3000, -14.821
1579.4000, -14.750
1579.5000, -14.682
1579.6000, -14.619
1579.7000, -14.562
1579.8000, -14.510
1579.9000, -14.466
1580.0000, -14.429
1580.1000, -14.403
1580.2000, -14.386
1580.3000, -14.375
1580.4000, -14.371
1580.5000, -14.376
1580.6000, -14.391
1580.7000, -14.414
1580.8000, -14.440
1580.9000, -14.472
1581.0000, -14.507
1581.1000, -14.551
1581.2000, -14.603
1581.3000, -14.661
1581.4000, -14.723
1581.5000, -14.786
1581.6000, -14.850
1581.7000, -14.919
1581.8000, -14.992
1581.9000, -15.071
1582.0000, -15.151
1582.1000, -15.233
1582.2000, -15.314
1582.3000, -15.392
1582.4000, -15.469
1582.5000, -15.549
1582.6000, -15.629
1582.7000, -15.708
1582.8000, -15.787
1582.9000, -15.867
1583.0000, -15.954
1583.1000, -16.048
1583.2000, -16.150
1583.3000, -16.258
1583.4000, -16.368
1583.5000, -16.476
1583.6000, -16.579
1583.7000, -16.679
1583.8000, -16.777
1583.9000, -16.871
1584.0000, -16.964
1584.1000, -17.059
1584.2000, -17.150
1584.3000, -17.241
1584.4000, -17.329
1584.5000, -17.418
1584.6000, -17.504
1584.7000, -17.592
1584.8000, -17.677
1584.9000, -17.758
1585.0000, -17.834
1585.1000, -17.904
1585.2000, -17.968
1585.3000, -18.025
1585.4000, -18.073
1585.5000, -18.109
1585.6000, -18.134
1585.7000, -18.152
1585.8000, -18.163
1585.9000, -18.171
1586.0000, -18.174
1586.1000, -18.171
1586.2000, -18.161
1586.3000, -18.150
1586.4000, -18.139
1586.5000, -18.127
1586.6000, -18.112
1586.7000, -18.094
1586.8000, -18.073
1586.9000, -18.055
1587.0000, -18.041
1587.1000, -18.028
1587.2000, -18.019
1587.3000, -18.012
1587.4000, -18.006
1587.5000, -18.002
1587.6000, -17.997
1587.7000, -17.995
1587.8000, -17.993
1587.9000, -17.993
1588.0000, -17.991
1588.1000, -17.991
1588.2000, -17.993
1588.3000, -18.003
1588.4000, -18.019
1588.5000, -18.042
1588.6000, -18.067
1588.7000, -18.094
1588.8000, -18.125
1588.9000, -18.159
1589.0000, -18.192
1589.1000, -18.228
1589.2000, -18.267
1589.3000, -18.311
1589.4000, -18.358
1589.5000, -18.410
1589.6000, -18.464
1589.7000, -18.525
1589.8000, -18.587
1589.9000, -18.654
1590.0000, -18.718
1590.1000, -18.785
1590.2000, -18.856
1590.3000, -18.933
1590.4000, -19.009
1590.5000, -19.086
1590.6000, -19.164
1590.7000, -19.246
1590.8000, -19.328
1590.9000, -19.407
1591.0000, -19.489
1591.1000, -19.569
1591.2000, -19.649
1591.3000, -19.731
1591.4000, -19.808
1591.5000, -19.882
1591.6000, -19.959
1591.7000, -20.037
1591.8000, -20.115
1591.9000, -20.190
1592.0000, -20.265
1592.1000, -20.339
1592.2000, -20.413
1592.3000, -20.487
1592.4000, -20.558
1592.5000, -20.624
1592.6000, -20.688
1592.7000, -20.751
1592.8000, -20.813
1592.9000, -20.876
1593.0000, -20.937
1593.1000, -21.000
1593.2000, -21.061
1593.3000, -21.117
1593.4000, -21.165
1593.5000, -21.211
1593.6000, -21.258
1593.7000, -21.305
1593.8000, -21.348
1593.9000, -21.390
1594.0000, -21.426
1594.1000, -21.462
1594.2000, -21.496
1594.3000, -21.530
1594.4000, -21.563
1594.5000, -21.595
1594.6000, -21.627
1594.7000, -21.652
1594.8000, -21.674
1594.9000, -21.694
1595.0000, -21.714
1595.1000, -21.739
1595.2000, -21.762
1595.3000, -21.782
1595.4000, -21.802
1595.5000, -21.821
1595.6000, -21.844
1595.7000, -21.866
1595.8000, -21.887
1595.9000, -21.910
1596.0000, -21.932
1596.1000, -21.959
1596.2000, -21.984
1596.3000, -22.012
1596.4000, -22.042
1596.5000, -22.072
1596.6000, -22.103
1596.7000, -22.134
1596.8000, -22.163
1596.9000, -22.195
1597.0000, -22.229
1597.1000, -22.264
1597.2000, -22.298
1597.3000, -22.332
1597.4000, -22.365
1597.5000, -22.403
1597.6000, -22.442
1597.7000, -22.486
1597.8000, -22.533
1597.9000, -22.577
1598.0000, -22.618
1598.1000, -22.654
1598.2000, -22.689
1598.3000, -22.728
1598.4000, -22.770
1598.5000, -22.818
1598.6000, -22.861
1598.7000, -22.901
1598.8000, -22.940
1598.9000, -22.980
1599.0000, -23.020
1599.1000, -23.058
1599.2000, -23.097
1599.3000, -23.133
1599.4000, -23.173
1599.5000, -23.213
1599.6000, -23.255
1599.7000, -23.296
1599.8000, -23.336
1599.9000, -23.379
1600.0000, -23.419
1600.1000, -23.454
1600.2000, -23.494
1600.3000, -23.533
1600.4000, -23.576
1600.5000, -23.616
1600.6000, -23.652
1600.7000, -23.687
1600.8000, -23.725
1600.9000, -23.765
1601.0000, -23.806
1601.1000, -23.841
1601.2000, -23.879
1601.3000, -23.919
1601.4000, -23.954
1601.5000, -23.992
1601.6000, -24.029
1601.7000, -24.070
1601.8000, -24.110
1601.9000, -24.150
1602.0000, -24.186
1602.1000, -24.221
1602.2000, -24.259
1602.3000, -24.299
1602.4000, -24.339
1602.5000, -24.378
1602.6000, -24.416
1602.7000, -24.455
1602.8000, -24.493
1602.9000, -24.533
1603.0000, -24.571
1603.1000, -24.612
1603.2000, -24.653
1603.3000, -24.691
1603.4000, -24.726
1603.5000, -24.763
1603.6000, -24.802
1603.7000, -24.849
1603.8000, -24.893
1603.9000, -24.937
1604.0000, -24.979
1604.1000, -25.020
1604.2000, -25.067
1604.3000, -25.113
1604.4000, -25.159
1604.5000, -25.203
1604.6000, -25.245
1604.7000, -25.290
1604.8000, -25.330
1604.9000, -25.373
1605.0000, -25.416
1605.1000, -25.463
1605.2000, -25.507
1605.3000, -25.551
1605.4000, -25.593
1605.5000, -25.635
1605.6000, -25.683
1605.7000, -25.732
1605.8000, -25.783
1605.9000, -25.830
1606.0000, -25.877
1606.1000, -25.926
1606.2000, -25.972
1606.3000, -26.018
1606.4000, -26.065
1606.5000, -26.112
1606.6000, -26.161
1606.7000, -26.206
1606.8000, -26.244
1606.9000, -26.285
1607.0000, -26.329
1607.1000, -26.373
1607.2000, -26.416
1607.3000, -26.457
1607.4000, -26.497
1607.5000, -26.538
1607.6000, -26.579
1607.7000, -26.620
1607.8000, -26.660
1607.9000, -26.698
1608.0000, -26.736
1608.1000, -26.771
1608.2000, -26.804
1608.3000, -26.836
1608.4000, -26.868
1608.5000, -26.902
1608.6000, -26.931
1608.7000, -26.958
1608.8000, -26.983
1608.9000, -27.009
1609.0000, -27.037
1609.1000, -27.065
1609.2000, -27.092
1609.3000, -27.119
1609.4000, -27.144
1609.5000, -27.171
1609.6000, -27.195
1609.7000, -27.221
1609.8000, -27.250
1609.9000, -27.280
1610.0000, -27.308
1610.1000, -27.334
1610.2000, -27.358
1610.3000, -27.383
1610.4000, -27.412
1610.5000, -27.441
1610.6000, -27.468
1610.7000, -27.497
1610.8000, -27.527
1610.9000, -27.557
1611.0000, -27.586
1611.1000, -27.616
1611.2000, -27.649
1611.3000, -27.684
1611.4000, -27.721
1611.5000, -27.759
1611.6000, -27.800
1611.7000, -27.844
1611.8000, -27.889
1611.9000, -27.936
1612.0000, -27.982
1612.1000, -28.029
1612.2000, -28.076
1612.3000, -28.128
1612.4000, -28.180
1612.5000, -28.230
1612.6000, -28.281
1612.7000, -28.332
1612.8000, -28.383
1612.9000, -28.432
1613.0000, -28.483
1613.1000, -28.536
1613.2000, -28.589
1613.3000, -28.643
1613.4000, -28.693
1613.5000, -28.746
1613.6000, -28.798
1613.7000, -28.855
1613.8000, -28.912
1613.9000, -28.966
1614.0000, -29.017
1614.1000, -29.067
1614.2000, -29.118
1614.3000, -29.166
1614.4000, -29.211
1614.5000, -29.255
1614.6000, -29.296
1614.7000, -29.338
1614.8000, -29.375
1614.9000, -29.412
1615.0000, -29.445
1615.1000, -29.478
1615.2000, -29.511
1615.3000, -29.543
1615.4000, -29.572
1615.5000, -29.602
1615.6000, -29.629
1615.7000, -29.659
1615.8000, -29.687
1615.9000, -29.712
1616.0000, -29.742
1616.1000, -29.770
1616.2000, -29.795
1616.3000, -29.819
1616.4000, -29.839
1616.5000, -29.859
1616.6000, -29.883
1616.7000, -29.901
1616.8000, -29.920
1616.9000, -29.941
1617.0000, -29.961
1617.1000, -29.985
1617.2000, -30.009
1617.3000, -30.034
1617.4000, -30.057
1617.5000, -30.085
1617.6000, -30.113
1617.7000, -30.144
1617.8000, -30.174
1617.9000, -30.209
1618.0000, -30.247
1618.1000, -30.280
1618.2000, -30.314
1618.3000, -30.345
1618.4000, -30.378
1618.5000, -30.415
1618.6000, -30.450
1618.7000, -30.487
1618.8000, -30.522
1618.9000, -30.559
1619.0000, -30.592
1619.1000, -30.626
1619.2000, -30.662
1619.3000, -30.701
1619.4000, -30.744
1619.5000, -30.786
1619.6000, -30.827
1619.7000, -30.866
1619.8000, -30.905
1619.9000, -30.949
1620.0000, -30.990
1620.1000, -31.036
1620.2000, -31.077
1620.3000, -31.115
1620.4000, -31.159
1620.5000, -31.198
1620.6000, -31.237
1620.7000, -31.274
1620.8000, -31.310
1620.9000, -31.345
1621.0000, -31.376
1621.1000, -31.406
1621.2000, -31.439
1621.3000, -31.472
1621.4000, -31.506
1621.5000, -31.541
1621.6000, -31.571
1621.7000, -31.604
1621.8000, -31.643
1621.9000, -31.680
1622.0000, -31.717
1622.1000, -31.752
1622.2000, -31.789
1622.3000, -31.821
1622.4000, -31.854
1622.5000, -31.888
1622.6000, -31.921
1622.7000, -31.956
1622.8000, -31.995
1622.9000, -32.027
1623.0000, -32.062
1623.1000, -32.090
1623.2000, -32.125
1623.3000, -32.161
1623.4000, -32.196
1623.5000, -32.230
1623.6000, -32.270
1623.7000, -32.309
1623.8000, -32.347
1623.9000, -32.383
1624.0000, -32.420
1624.1000, -32.463
1624.2000, -32.505
1624.3000, -32.544
1624.4000, -32.583
1624.5000, -32.620
1624.6000, -32.657
1624.7000, -32.696
1624.8000, -32.729
1624.9000, -32.765
1625.0000, -32.797
1625.1000, -32.829
1625.2000, -32.862
1625.3000, -32.897
1625.4000, -32.928
1625.5000, -32.965
1625.6000, -33.000
1625.7000, -33.034
1625.8000, -33.065
1625.9000, -33.095
1626.0000, -33.134
1626.1000, -33.169
1626.2000, -33.202
1626.3000, -33.233
1626.4000, -33.262
1626.5000, -33.296
1626.6000, -33.327
1626.7000, -33.356
1626.8000, -33.387
1626.9000, -33.421
1627.0000, -33.449
1627.1000, -33.470
1627.2000, -33.494
1627.3000, -33.519
1627.4000, -33.546
1627.5000, -33.579
1627.6000, -33.608
1627.7000, -33.641
1627.8000, -33.673
1627.9000, -33.708
1628.0000, -33.741
1628.1000, -33.778
1628.2000, -33.812
1628.3000, -33.851
1628.4000, -33.890
1628.5000, -33.930
1628.6000, -33.964
1628.7000, -34.000
1628.8000, -34.038
1628.9000, -34.076
1629.0000, -34.112
1629.1000, -34.146
1629.2000, -34.180
1629.3000, -34.216
1629.4000, -34.253
1629.5000, -34.290
1629.6000, -34.329
1629.7000, -34.368
1629.8000, -34.408
1629.9000, -34.446
1630.0000, -34.484
1630.1000, -34.525
1630.2000, -34.568
1630.3000, -34.616
1630.4000, -34.659
1630.5000, -34.697
1630.6000, -34.730
1630.7000, -34.769
1630.8000, -34.806
1630.9000, -34.837
1631.0000, -34.871
1631.1000, -34.904
1631.2000, -34.937
1631.3000, -34.968
1631.4000, -34.996
1631.5000, -35.024
1631.6000, -35.055
1631.7000, -35.089
1631.8000, -35.122
1631.9000, -35.155
1632.0000, -35.186
1632.1000, -35.222
1632.2000, -35.257
1632.3000, -35.293
1632.4000, -35.329
1632.5000, -35.365
1632.6000, -35.400
1632.7000, -35.435
1632.8000, -35.467
1632.9000, -35.499
1633.0000, -35.530
1633.1000, -35.566
1633.2000, -35.598
1633.3000, -35.627
1633.4000, -35.655
1633.5000, -35.686
1633.6000, -35.720
1633.7000, -35.752
1633.8000, -35.786
1633.9000, -35.820
1634.0000, -35.856
1634.1000, -35.897
1634.2000, -35.935
1634.3000, -35.975
1634.4000, -36.015
1634.5000, -36.058
1634.6000, -36.095
1634.7000, -36.133
1634.8000, -36.165
1634.9000, -36.200
1635.0000, -36.235
1635.1000, -36.268
1635.2000, -36.300
1635.3000, -36.330
1635.4000, -36.360
1635.5000, -36.391
1635.6000, -36.418
1635.7000, -36.445
1635.8000, -36.475
1635.9000, -36.509
1636.0000, -36.541
1636.1000, -36.571
1636.2000, -36.602
1636.3000, -36.634
1636.4000, -36.670
1636.5000, -36.701
1636.6000, -36.733
1636.7000, -36.764
1636.8000, -36.796
1636.9000, -36.826
1637.0000, -36.855
1637.1000, -36.881
1637.2000, -36.906
1637.3000, -36.936
1637.4000, -36.963
1637.5000, -36.989
1637.6000, -37.014
1637.7000, -37.042
1637.8000, -37.070
1637.9000, -37.103
1638.0000, -37.131
1638.1000, -37.163
1638.2000, -37.197
1638.3000, -37.236
1638.4000, -37.276
1638.5000, -37.312
1638.6000, -37.349
1638.7000, -37.386
1638.8000, -37.422
1638.9000, -37.455
1639.0000, -37.485
1639.1000, -37.518
1639.2000, -37.551
1639.3000, -37.582
1639.4000, -37.610
1639.5000, -37.639
1639.6000, -37.669
1639.7000, -37.701
1639.8000, -37.729
1639.9000, -37.762
1640.0000, -37.789
1640.1000, -37.828
1640.2000, -37.861
1640.3000, -37.892
1640.4000, -37.928
1640.5000, -37.958
1640.6000, -37.996
1640.7000, -38.030
1640.8000, -38.061
1640.9000, -38.089
1641.0000, -38.119
1641.1000, -38.149
1641.2000, -38.174
1641.3000, -38.197
1641.4000, -38.222
1641.5000, -38.250
1641.6000, -38.277
1641.7000, -38.301
1641.8000, -38.320
1641.9000, -38.344
1642.0000, -38.368
1642.1000, -38.398
1642.2000, -38.428
1642.3000, -38.464
1642.4000, -38.498
1642.5000, -38.533
1642.6000, -38.568
1642.7000, -38.601
1642.8000, -38.632
1642.9000, -38.669
1643.0000, -38.706
1643.1000, -38.734
1643.2000, -38.763
1643.3000, -38.791
1643.4000, -38.823
1643.5000, -38.852
1643.6000, -38.882
1643.7000, -38.910
1643.8000, -38.943
1643.9000, -38.970
1644.0000, -38.998
1644.1000, -39.033
1644.2000, -39.065
1644.3000, -39.103
1644.4000, -39.141
1644.5000, -39.182
1644.6000, -39.214
1644.7000, -39.249
1644.8000, -39.290
1644.9000, -39.327
1645.0000, -39.361
1645.1000, -39.398
1645.2000, -39.425
1645.3000, -39.456
1645.4000, -39.481
1645.5000, -39.507
1645.6000, -39.530
1645.7000, -39.557
1645.8000, -39.583
1645.9000, -39.608
1646.0000, -39.634
1646.1000, -39.658
1646.2000, -39.686
1646.3000, -39.716
1646.4000, -39.746
1646.5000, -39.775
1646.6000, -39.806
1646.7000, -39.843
1646.8000, -39.875
1646.9000, -39.908
1647.0000, -39.938
1647.1000, -39.973
1647.2000, -40.004
1647.3000, -40.033
1647.4000, -40.060
1647.5000, -40.090
1647.6000, -40.116
1647.7000, -40.143
1647.8000, -40.166
1647.9000, -40.195
1648.0000, -40.224
1648.1000, -40.257
1648.2000, -40.285
1648.3000, -40.321
1648.4000, -40.353
1648.5000, -40.393
1648.6000, -40.431
1648.7000, -40.462
1648.8000, -40.501
1648.9000, -40.536
1649.0000, -40.577
1649.1000, -40.611
1649.2000, -40.647
1649.3000, -40.681
1649.4000, -40.714
1649.5000, -40.744
1649.6000, -40.773
1649.7000, -40.796
1649.8000, -40.819
1649.9000, -40.848
1650.0000, -40.875
1650.1000, -40.901
1650.2000, -40.924
1650.3000, -40.954
1650.4000, -40.986
1650.5000, -41.014
1650.6000, -41.041
1650.7000, -41.077
1650.8000, -41.114
1650.9000, -41.152
1651.0000, -41.189
1651.1000, -41.214
1651.2000, -41.253
1651.3000, -41.284
1651.4000, -41.319
1651.5000, -41.346
1651.6000, -41.377
1651.7000, -41.403
1651.8000, -41.432
1651.9000, -41.463
1652.0000, -41.490
1652.1000, -41.516
1652.2000, -41.550
1652.3000, -41.577
1652.4000, -41.615
1652.5000, -41.655
1652.6000, -41.688
1652.7000, -41.717
1652.8000, -41.759
1652.9000, -41.799
1653.0000, -41.825
1653.1000, -41.866
1653.2000, -41.909
1653.3000, -41.941
1653.4000, -41.972
1653.5000, -42.033
1653.6000, -42.042
1653.7000, -42.069
1653.8000, -42.095
1653.9000, -42.120
1654.0000, -42.142
1654.1000, -42.171
1654.2000, -42.199
1654.3000, -42.222
1654.4000, -42.249
1654.5000, -42.275
1654.6000, -42.308
1654.7000, -42.338
1654.8000, -42.369
1654.9000, -42.405
1655.0000, -42.438
1655.1000, -42.474
1655.2000, -42.508
1655.3000, -42.542
1655.4000, -42.575
1655.5000, -42.607
1655.6000, -42.645
1655.7000, -42.674
1655.8000, -42.701
1655.9000, -42.726
1656.0000, -42.752
1656.1000, -42.780
1656.2000, -42.810
1656.3000, -42.834
1656.4000, -42.868
1656.5000, -42.898
1656.6000, -42.928
1656.7000, -42.961
1656.8000, -42.991
1656.9000, -43.030
1657.0000, -43.069
1657.1000, -43.106
1657.2000, -43.135
1657.3000, -43.172
1657.4000, -43.214
1657.5000, -43.251
1657.6000, -43.282
1657.7000, -43.305
1657.8000, -43.334
1657.9000, -43.361
1658.0000, -43.386
1658.1000, -43.409
1658.2000, -43.429
1658.3000, -43.456
1658.4000, -43.482
1658.5000, -43.503
1658.6000, -43.527
1658.7000, -43.551
1658.8000, -43.585
1658.9000, -43.610
1659.0000, -43.643
1659.1000, -43.677
1659.2000, -43.717
1659.3000, -43.760
1659.4000, -43.803
1659.5000, -43.828
1659.6000, -43.872
1659.7000, -43.913
1659.8000, -43.937
1659.9000, -43.966
1660.0000, -43.996
1660.1000, -44.027
1660.2000, -44.047
1660.3000, -44.077
1660.4000, -44.105
1660.5000, -44.128
1660.6000, -44.159
1660.7000, -44.190
1660.8000, -44.219
1660.9000, -44.248
1661.0000, -44.288
1661.1000, -44.331
1661.2000, -44.364
1661.3000, -44.394
1661.4000, -44.432
1661.5000, -44.470
1661.6000, -44.505
1661.7000, -44.545
1661.8000, -44.572
1661.9000, -44.596
1662.0000, -44.627
1662.1000, -44.651
1662.2000, -44.671
1662.3000, -44.687
1662.4000, -44.710
1662.5000, -44.739
1662.6000, -44.758
1662.7000, -44.781
1662.8000, -44.811
1662.9000, -44.844
1663.0000, -44.880
1663.1000, -44.919
1663.2000, -44.955
1663.3000, -44.988
1663.4000, -45.037
1663.5000, -45.078
1663.6000, -45.119
1663.7000, -45.158
1663.8000, -45.194
1663.9000, -45.223
1664.0000, -45.260
1664.1000, -45.277
1664.2000, -45.302
1664.3000, -45.331
1664.4000, -45.356
1664.5000, -45.375
1664.6000, -45.392
1664.7000, -45.431
1664.8000, -45.458
1664.9000, -45.483
1665.0000, -45.514
1665.1000, -45.540
1665.2000, -45.574
1665.3000, -45.618
1665.4000, -45.659
1665.5000, -45.696
1665.6000, -45.736
1665.7000, -45.786
1665.8000, -45.826
1665.9000, -45.853
1666.0000, -45.874
1666.1000, -45.903
1666.2000, -45.934
1666.3000, -45.947
1666.4000, -45.974
1666.5000, -45.990
1666.6000, -46.014
1666.7000, -46.041
1666.8000, -46.066
1666.9000, -46.092
1667.0000, -46.112
1667.1000, -46.149
1667.2000, -46.194
1667.3000, -46.240
1667.4000, -46.286
1667.5000, -46.327
1667.6000, -46.377
1667.7000, -46.412
1667.8000, -46.458
1667.9000, -46.506
1668.0000, -46.533
1668.1000, -46.551
1668.2000, -46.571
1668.3000, -46.602
1668.4000, -46.616
1668.5000, -46.634
1668.6000, -46.663
1668.7000, -46.672
1668.8000, -46.706
1668.9000, -46.726
1669.0000, -46.758
1669.1000, -46.790
1669.2000, -46.804
1669.3000, -46.833
1669.4000, -46.895
1669.5000, -46.929
1669.6000, -46.981
1669.7000, -47.021
1669.8000, -47.063
1669.9000, -47.114
1670.0000, -47.146
1670.1000, -47.175
1670.2000, -47.205
1670.3000, -47.256
1670.4000, -47.269
1670.5000, -47.301
1670.6000, -47.305
1670.7000, -47.336
1670.8000, -47.352
1670.9000, -47.363
1671.0000, -47.395
1671.1000, -47.424
1671.2000, -47.471
1671.3000, -47.482
1671.4000, -47.534
1671.5000, -47.561
1671.6000, -47.607
1671.7000, -47.660
1671.8000, -47.703
1671.9000, -47.761
1672.0000, -47.787
1672.1000, -47.825
1672.2000, -47.868
1672.3000, -47.895
1672.4000, -47.918
1672.5000, -47.931
1672.6000, -47.958
1672.7000, -47.965
1672.8000, -47.998
1672.9000, -48.005
1673.0000, -48.045
1673.1000, -48.042
1673.2000, -48.063
1673.3000, -48.112
1673.4000, -48.133
1673.5000, -48.171
1673.6000, -48.213
1673.7000, -48.271
1673.8000, -48.335
1673.9000, -48.372
1674.0000, -48.389
1674.1000, -48.450
1674.2000, -48.487
1674.3000, -48.511
1674.4000, -48.539
1674.5000, -48.561
1674.6000, -48.601
1674.7000, -48.637
1674.8000, -48.621
1674.9000, -48.670
1675.0000, -48.678
1675.1000, -48.679
1675.2000, -48.714
1675.3000, -48.739
1675.4000, -48.762
1675.5000, -48.794
1675.6000, -48.846
1675.7000, -48.843
1675.8000, -48.912
1675.9000, -48.928
1676.0000, -48.984
1676.1000, -49.015
1676.2000, -49.078
1676.3000, -49.109
1676.4000, -49.162
1676.5000, -49.181
1676.6000, -49.255
1676.7000, -49.233
1676.8000, -49.229
1676.9000, -49.299
1677.0000, -49.312
1677.1000, -49.334
1677.2000, -49.350
1677.3000, -49.343
1677.4000, -49.407
1677.5000, -49.409
1677.6000, -49.492
1677.7000, -49.473
1677.8000, -49.525
1677.9000, -49.538
1678.0000, -49.625
1678.1000, -49.611
1678.2000, -49.692
1678.3000, -49.789
1678.4000, -49.743
1678.5000, -49.784
1678.6000, -49.869
1678.7000, -49.896
1678.8000, -49.887
1678.9000, -49.938
1679.0000, -49.959
1679.1000, -50.005
1679.2000, -50.020
1679.3000, -50.031
1679.4000, -50.059
1679.5000, -50.049
1679.6000, -50.058
1679.7000, -50.105
1679.8000, -50.145
1679.9000, -50.178
1680.0000, -50.210
1680.1000, -50.257
1680.2000, -50.323
1680.3000, -50.373
1680.4000, -50.414
1680.5000, -50.500
1680.6000, -50.570
1680.7000, -50.613
1680.8000, -50.560
1680.9000, -50.644
1681.0000, -50.712
1681.1000, -50.606
1681.2000, -50.676
1681.3000, -50.746
1681.4000, -50.701
1681.5000, -50.758
1681.6000, -50.802
1681.7000, -50.789
1681.8000, -50.806
1681.9000, -50.799
1682.0000, -50.868
1682.1000, -50.882
1682.2000, -50.907
1682.3000, -51.029
1682.4000, -51.049
1682.5000, -51.075
1682.6000, -51.185
1682.7000, -51.252
1682.8000, -51.282
1682.9000, -51.225
1683.0000, -51.373
1683.1000, -51.432
1683.2000, -51.379
1683.3000, -51.438
1683.4000, -51.508
1683.5000, -51.467
1683.6000, -51.470
1683.7000, -51.450
1683.8000, -51.474
1683.9000, -51.548
1684.0000, -51.606
1684.1000, -51.661
1684.2000, -51.651
1684.3000, -51.690
1684.4000, -51.692
1684.5000, -51.763
1684.6000, -51.834
1684.7000, -51.894
1684.8000, -51.920
1684.9000, -51.985
1685.0000, -51.978
1685.1000, -52.054
1685.2000, -52.051
1685.3000, -52.190
1685.4000, -52.103
1685.5000, -52.106
1685.6000, -52.197
1685.7000, -52.148
1685.8000, -52.127
1685.9000, -52.204
1686.0000, -52.318
1686.1000, -52.333
1686.2000, -52.263
1686.3000, -52.267
1686.4000, -52.383
1686.5000, -52.465
1686.6000, -52.422
1686.7000, -52.565
1686.8000, -52.584
1686.9000, -52.668
1687.0000, -52.751
1687.1000, -52.725
1687.2000, -52.779
1687.3000, -52.741
1687.4000, -52.839
1687.5000, -52.804
1687.6000, -52.893
1687.7000, -52.882
1687.8000, -52.865
1687.9000, -52.857
1688.0000, -52.839
1688.1000, -52.880
1688.2000, -53.088
1688.3000, -53.042
1688.4000, -53.060
1688.5000, -52.989
1688.6000, -53.005
1688.7000, -53.215
1688.8000, -53.239
1688.9000, -53.288
1689.0000, -53.208
1689.1000, -53.450
1689.2000, -53.472
1689.3000, -53.355
1689.4000, -53.306
1689.5000, -53.519
1689.6000, -53.574
1689.7000, -53.548
1689.8000, -53.488
1689.9000, -53.566
1690.0000, -53.574
1690.1000, -53.547
1690.2000, -53.544
1690.3000, -53.815
1690.4000, -53.763
1690.5000, -53.762
1690.6000, -53.687
1690.7000, -53.669
1690.8000, -53.802
1690.9000, -53.881
1691.0000, -53.814
1691.1000, -54.019
1691.2000, -54.112
1691.3000, -54.049
1691.4000, -54.115
1691.5000, -54.052
1691.6000, -54.165
1691.7000, -54.170
1691.8000, -54.279
1691.9000, -54.375
1692.0000, -54.303
1692.1000, -54.458
1692.2000, -54.405
1692.3000, -54.291
1692.4000, -54.433
1692.5000, -54.166
1692.6000, -54.311
1692.7000, -54.449
1692.8000, -54.300
1692.9000, -54.609
1693.0000, -54.461
1693.1000, -54.607
1693.2000, -54.634
1693.3000, -54.966
1693.4000, -54.518
1693.5000, -54.708
1693.6000, -54.892
1693.7000, -54.897
1693.8000, -54.901
1693.9000, -54.846
1694.0000, -55.039
1694.1000, -55.043
1694.2000, -55.272
1694.3000, -55.217
1694.4000, -55.097
1694.5000, -54.941
1694.6000, -55.342
1694.7000, -55.203
1694.8000, -55.021
1694.9000, -55.394
1695.0000, -55.261
1695.1000, -55.248
1695.2000, -55.038
1695.3000, -55.386
1695.4000, -55.398
1695.5000, -55.589
1695.6000, -55.280
1695.7000, -55.845
1695.8000, -55.557
1695.9000, -55.495
1696.0000, -55.607
1696.1000, -55.513
1696.2000, -55.699
1696.3000, -55.862
1696.4000, -55.726
1696.5000, -55.872
1696.6000, -55.676
1696.7000, -55.355
1696.8000, -55.561
1696.9000, -55.923
1697.0000, -55.436
1697.1000, -56.004
1697.2000, -55.840
1697.3000, -56.320
1697.4000, -56.074
1697.5000, -55.943
1697.6000, -56.369
1697.7000, -56.341
1697.8000, -56.059
1697.9000, -55.962
1698.0000, -55.968
1698.1000, -56.384
1698.2000, -56.282
1698.3000, -56.443
1698.4000, -56.483
1698.5000, -56.164
1698.6000, -55.837
1698.7000, -56.004
1698.8000, -56.965
1698.9000, -56.770
1699.0000, -55.983
1699.1000, -56.882
1699.2000, -56.456
1699.3000, -56.316
1699.4000, -56.609
1699.5000, -56.740
1699.6000, -56.440
1699.7000, -56.893
1699.8000, -56.995
1699.9000, -56.951
1700.0000, -56.969
1700.1000, -56.793
1700.2000, -56.643
1700.3000, -57.316
1700.4000, -57.221
1700.5000, -56.761
1700.6000, -57.612
1700.7000, -56.859
1700.8000, -57.214
1700.9000, -57.522
1701.0000, -57.387
1701.1000, -57.155
1701.2000, -57.064
1701.3000, -57.020
1701.4000, -57.110
1701.5000, -57.151
1701.6000, -57.641
1701.7000, -57.291
1701.8000, -57.546
1701.9000, -57.423
1702.0000, -57.379
1702.1000, -58.312
1702.2000, -57.295
1702.3000, -57.911
1702.4000, -58.286
1702.5000, -58.198
1702.6000, -57.985
1702.7000, -58.014
1702.8000, -57.257
1702.9000, -57.862
1703.0000, -58.351
1703.1000, -57.349
1703.2000, -57.750
1703.3000, -57.565
1703.4000, -57.457
1703.5000, -57.280
1703.6000, -57.600
1703.7000, -57.966
1703.8000, -58.053
1703.9000, -57.932
1704.0000, -58.096
1704.1000, -57.961
1704.2000, -57.231
1704.3000, -57.562
1704.4000, -57.891
1704.5000, -57.840
1704.6000, -57.763
1704.7000, -58.319
1704.8000, -58.325
1704.9000, -59.031
1705.0000, -57.750
1705.1000, -57.836
1705.2000, -58.786
1705.3000, -59.140
1705.4000, -58.348
1705.5000, -57.822
1705.6000, -59.295
1705.7000, -58.980
1705.8000, -58.340
1705.9000, -58.087
1706.0000, -59.117
1706.1000, -57.734
1706.2000, -58.765
1706.3000, -58.205
1706.4000, -57.801
1706.5000, -58.253
1706.6000, -57.853
1706.7000, -59.378
1706.8000, -59.792
1706.9000, -58.889
1707.0000, -57.899
1707.1000, -58.289
1707.2000, -58.860
1707.3000, -59.810
1707.4000, -59.030
1707.5000, -58.570
1707.6000, -58.314
1707.7000, -59.437
1707.8000, -59.397
1707.9000, -58.993
1708.0000, -58.140
1708.1000, -59.099
1708.2000, -59.532
1708.3000, -58.744
1708.4000, -59.023
1708.5000, -58.801
1708.6000, -58.799
1708.7000, -58.760
1708.8000, -58.704
1708.9000, -59.598
1709.0000, -58.039
1709.1000, -58.812
1709.2000, -59.148
1709.3000, -59.464
1709.4000, -58.839
1709.5000, -59.547
1709.6000, -58.463
1709.7000, -59.597
1709.8000, -58.637
1709.9000, -58.650
1710.0000, -59.547
1710.1000, -59.196
1710.2000, -59.747
1710.3000, -59.137
1710.4000, -59.429
1710.5000, -59.548
1710.6000, -59.340
1710.7000, -60.137
1710.8000, -60.832
1710.9000, -59.560
1711.0000, -59.420
1711.1000, -59.303
1711.2000, -60.470
1711.3000, -58.549
1711.4000, -59.522
1711.5000, -60.827
1711.6000, -59.365
1711.7000, -61.537
1711.8000, -60.319
1711.9000, -60.819
1712.0000, -60.563
1712.1000, -59.643
1712.2000, -60.279
1712.3000, -59.591
1712.4000, -60.695
1712.5000, -60.784
1712.6000, -61.333
1712.7000, -64.155
1712.8000, -59.986
1712.9000, -60.139
1713.0000, -61.922
1713.1000, -60.069
1713.2000, -59.656
1713.3000, -61.322
1713.4000, -59.481
1713.5000, -59.704
1713.6000, -61.264
1713.7000, -58.477
1713.8000, -60.670
1713.9000, -60.595
1714.0000, -60.558
1714.1000, -61.610
1714.2000, -60.620
1714.3000, -61.154
1714.4000, -61.248
1714.5000, -58.925
1714.6000, -61.907
1714.7000, -62.442
1714.8000, -60.784
1714.9000, -60.969
1715.0000, -58.808
1715.1000, -61.064
1715.2000, -60.561
1715.3000, -60.664
1715.4000, -61.222
1715.5000, -60.550
1715.6000, -62.436
1715.7000, -59.645
1715.8000, -58.759
1715.9000, -60.195
1716.0000, -60.642
1716.1000, -59.792
1716.2000, -59.673
1716.3000, -61.270
1716.4000, -60.937
1716.5000, -59.522
1716.6000, -61.451
1716.7000, -59.805
1716.8000, -59.947
1716.9000, -61.118
1717.0000, -61.623
1717.1000, -59.948
1717.2000, -59.034
1717.3000, -59.382
1717.4000, -60.452
1717.5000, -61.657
1717.6000, -60.947
1717.7000, -61.128
1717.8000, -61.578
1717.9000, -63.311
1718.0000, -60.295
1718.1000, -59.355
1718.2000, -61.974
1718.3000, -61.723
1718.4000, -60.543
1718.5000, -59.913
1718.6000, -59.056
1718.7000, -61.882
1718.8000, -63.451
1718.9000, -60.447
1719.0000, -60.784
1719.1000, -61.046
1719.2000, -60.855
1719.3000, -60.530
1719.4000, -62.612
1719.5000, -75.377
1719.6000,-210.000
1719.7000, -65.999
1719.8000, -69.554
1719.9000, -61.947
1720.0000, -61.430
1720.1000, -61.055
1720.2000, -60.175
1720.3000, -60.383
1720.4000, -58.713
1720.5000, -61.065
1720.6000, -60.005
1720.7000, -62.325
1720.8000, -62.064
1720.9000, -60.195
1721.0000, -59.472
1721.1000, -63.406
1721.2000, -62.695
1721.3000, -60.312
1721.4000, -59.089
1721.5000, -60.157
1721.6000, -61.930
1721.7000, -60.885
1721.8000, -61.195
1721.9000, -62.158
1722.0000, -63.603
1722.1000, -61.643
1722.2000, -63.510
1722.3000, -58.730
1722.4000, -60.399
1722.5000, -66.351
1722.6000, -64.717
1722.7000, -61.333
1722.8000, -60.139
1722.9000, -61.419
1723.0000, -59.225
1723.1000, -62.829
1723.2000, -61.224
1723.3000, -62.809
1723.4000, -71.241
1723.5000, -59.451
1723.6000, -59.561
1723.7000, -63.295
1723.8000, -66.524
1723.9000, -61.737
1724.0000, -60.975
1724.1000, -60.408
1724.2000, -65.205
1724.3000,-210.000
1724.4000, -63.938
1724.5000, -61.954
1724.6000, -62.729
1724.7000, -59.363
1724.8000, -64.079
1724.9000, -61.803
1725.0000, -62.724
1725.1000, -63.915
1725.2000, -60.530
1725.3000, -66.231
1725.4000, -68.499
1725.5000, -61.732
1725.6000, -61.159
1725.7000, -63.275
1725.8000,-210.000
1725.9000, -63.609
1726.0000, -60.091
1726.1000, -61.614
1726.2000, -62.650
1726.3000, -70.735
1726.4000, -60.456
1726.5000, -60.897
1726.6000, -66.440
1726.7000, -63.503
1726.8000, -63.286
1726.9000, -59.278
1727.0000,-210.000
1727.1000, -62.115
1727.2000, -68.617
1727.3000, -64.033
1727.4000, -61.922
1727.5000, -62.405
1727.6000, -62.862
1727.7000, -61.362
1727.8000, -61.935
1727.9000, -64.365
1728.0000, -65.398
1728.1000, -60.061
1728.2000, -62.573
1728.3000, -59.126
1728.4000, -67.360
1728.5000, -59.920
1728.6000, -60.467
1728.7000, -60.397
1728.8000, -60.366
1728.9000, -65.553
1729.0000, -79.000
1729.1000, -61.519
1729.2000, -59.568
1729.3000, -63.608
1729.4000, -61.681
1729.5000, -61.312
1729.6000, -65.440
1729.7000, -60.088
1729.8000, -58.757
1729.9000, -60.493
1730.0000, -59.402
1730.1000, -61.575
1730.2000,-210.000
1730.3000, -60.916
1730.4000, -68.080
1730.5000, -63.288
1730.6000, -61.466
1730.7000, -59.875
1730.8000, -58.172
1730.9000, -65.165
1731.0000, -64.000
1731.1000, -61.268
1731.2000, -61.134
1731.3000, -58.528
1731.4000, -65.004
1731.5000, -64.570
1731.6000, -63.965
1731.7000, -59.305
1731.8000, -57.254
1731.9000, -60.824
1732.0000, -67.656
1732.1000, -64.472
1732.2000, -58.909
1732.3000, -60.123
1732.4000,-210.000
1732.5000, -69.784
1732.6000, -70.430
1732.7000, -59.653
1732.8000, -58.624
1732.9000, -59.085
1733.0000, -67.648
1733.1000, -62.345
1733.2000, -57.545
1733.3000, -59.605
1733.4000, -68.489
1733.5000, -62.521
1733.6000,-210.000
1733.7000, -58.892
1733.8000, -57.587
1733.9000,-210.000
1734.0000, -60.497
1734.1000, -70.171
1734.2000, -60.281
1734.3000, -60.990
1734.4000, -68.194
1734.5000, -60.095
1734.6000, -62.374
1734.7000,-210.000
1734.8000, -65.097
1734.9000,-210.000
1735.0000,-210.000
1735.1000, -64.428
1735.2000, -58.814
1735.3000, -64.691
1735.4000, -62.837
1735.5000, -70.853
1735.6000,-210.000
1735.7000, -59.797
1735.8000, -59.365
1735.9000, -59.447
1736.0000, -59.868
1736.1000, -63.366
1736.2000, -61.535
1736.3000, -62.045
1736.4000, -61.990
1736.5000, -63.003
1736.6000,-210.000
1736.7000, -60.540
1736.8000,-210.000
1736.9000, -64.038
1737.0000,-210.000
1737.1000, -58.907
1737.2000, -58.311
1737.3000, -62.581
1737.4000, -60.365
1737.5000, -60.647
1737.6000, -59.562
1737.7000, -60.852
1737.8000, -58.044
1737.9000, -63.181
1738.0000, -59.890
1738.1000, -58.806
1738.2000, -56.541
1738.3000, -62.294
1738.4000, -60.118
1738.5000, -63.560
1738.6000, -71.280
1738.7000, -59.773
1738.8000, -71.183
1738.9000, -61.833
1739.0000, -57.815
1739.1000,-210.000
1739.2000, -64.554
1739.3000, -75.006
1739.4000, -58.263
1739.5000, -61.366
1739.6000,-210.000
1739.7000, -79.501
1739.8000, -62.709
1739.9000, -62.065
1740.0000, -66.033
1740.1000, -60.504
1740.2000, -58.212
1740.3000, -59.818
1740.4000, -61.339
1740.5000,-210.000
1740.6000, -59.114
1740.7000, -61.837
1740.8000, -59.463
1740.9000, -59.258
1741.0000, -61.873
1741.1000,-210.000
1741.2000, -57.418
1741.3000, -61.795
1741.4000, -69.238
1741.5000, -58.766
1741.6000, -56.639
1741.7000, -57.460
1741.8000, -58.898
1741.9000, -59.754
1742.0000, -70.512
1742.1000, -63.511
1742.2000, -61.010
1742.3000, -65.116
1742.4000,-210.000
1742.5000,-210.000
1742.6000, -58.414
1742.7000, -60.604
1742.8000, -60.710
1742.9000, -61.381
1743.0000,-210.000
1743.1000,-210.000
1743.2000, -62.026
1743.3000, -60.616
1743.4000, -58.281
1743.5000, -61.870
1743.6000, -58.536
1743.7000, -57.550
1743.8000, -61.693
1743.9000, -58.711
1744.0000, -58.830
1744.1000, -61.586
1744.2000, -65.780
1744.3000, -56.284
1744.4000,-210.000
1744.5000, -61.133
1744.6000, -61.621
1744.7000, -58.724
1744.8000, -61.161
1744.9000, -60.027
1745.0000, -61.400
1745.1000, -58.026
1745.2000, -64.428
1745.3000,-210.000
1745.4000, -57.544
1745.5000,-210.000
1745.6000, -58.027
1745.7000, -62.207
1745.8000, -62.626
1745.9000, -58.943
1746.0000, -64.093
1746.1000, -59.382
1746.2000, -66.056
1746.3000,-210.000
1746.4000, -58.442
1746.5000, -63.931
1746.6000, -58.443
1746.7000, -62.666
1746.8000, -75.211
1746.9000, -65.635
1747.0000, -57.916
1747.1000, -56.132
1747.2000, -58.055
1747.3000, -67.584
1747.4000, -58.095
1747.5000, -60.044
1747.6000, -72.380
1747.7000, -58.548
1747.8000, -58.457
1747.9000,-210.000
1748.0000,-210.000
1748.1000, -59.217
1748.2000, -61.343
1748.3000, -60.124
1748.4000, -57.108
1748.5000,-210.000
1748.6000, -59.374
1748.7000, -60.795
1748.8000, -63.943
1748.9000, -57.863
1749.0000, -57.110
1749.1000, -61.160
1749.2000, -62.779
1749.3000,-210.000
1749.4000, -60.476
1749.5000, -68.626
1749.6000, -57.851
1749.7000, -59.383
1749.8000, -62.453
1749.9000,-210.000
1750.0000, -61.459
