74CSV  	
// AQ6374 OPTICAL SPECTRUM ANALYZER //                  
35
"CTRWL",1550.000000
"SPAN",  50.500000
"START WL",1524.750000
"STOP WL",1575.250000
"WLFREQ", 0
"REFL",-10.0
"LSCL",10.0
"RESLN",0.050
"AVG",   1
"SMPLAUTO",      1
"SMPL",       5051
"SMPLINTVL",0.0100
"HIGH1"
"MEAS"
"LSUNT",1
"NMSKH","OFF"
"RESCOR",0
"SMOOTH",0
"MEASWL",0
"SWPSPD",1
"MODELNAME","AQ6374"
"CHGPT",          0
"RESCAL0_0",      10102
"RESCAL0_1",       -171
"RESCAL0_2",     264153
"RESCAL1_0",      10290
"RESCAL1_1",          0
"RESCAL1_2",          0
"CORESIZE", 0






"[TRACE DATA]"
1524.7500,-210.000
1524.7600, -66.308
1524.7700, -67.391
1524.7800, -68.652
1524.7900, -67.693
1524.8000, -77.656
1524.8100, -69.055
1524.8200,-210.000
1524.8300, -68.265
1524.8400, -82.129
1524.8500, -72.213
1524.8600,-210.000
1524.8700, -70.966
1524.8800, -74.465
1524.8900, -73.353
1524.9000, -72.308
1524.9100, -69.342
1524.9200, -74.694
1524.9300, -76.545
1524.9400,-210.000
1524.9500,-210.000
1524.9600,-210.000
1524.9700, -74.373
1524.9800,-210.000
1524.9900, -76.565
1525.0000,-210.000
1525.0100, -73.656
1525.0200,-210.000
1525.0300, -69.945
1525.0400,-210.000
1525.0500,-210.000
1525.0600,-210.000
1525.0700,-210.000
1525.0800,-210.000
1525.0900,-210.000
1525.1000,-210.000
1525.1100,-210.000
1525.1200, -81.947
1525.1300, -70.416
1525.1400,-210.000
1525.1500,-210.000
1525.1600,-210.000
1525.1700,-210.000
1525.1800, -68.183
1525.1900,-210.000
1525.2000, -69.689
1525.2100, -69.708
1525.2200, -68.929
1525.2300,-210.000
1525.2400,-210.000
1525.2500, -68.714
1525.2600,-210.000
1525.2700, -66.448
1525.2800,-210.000
1525.2900,-210.000
1525.3000, -79.097
1525.3100, -68.373
1525.3200,-210.000
1525.3300,-210.000
1525.3400, -71.113
1525.3500,-210.000
1525.3600, -65.826
1525.3700, -71.780
1525.3800,-210.000
1525.3900, -69.544
1525.4000,-210.000
1525.4100, -72.080
1525.4200,-210.000
1525.4300, -70.787
1525.4400,-210.000
1525.4500,-210.000
1525.4600, -71.963
1525.4700,-210.000
1525.4800, -73.130
1525.4900, -71.378
1525.5000, -66.172
1525.5100,-210.000
1525.5200,-210.000
1525.5300, -70.364
1525.5400, -68.833
1525.5500,-210.000
1525.5600,-210.000
1525.5700, -66.293
1525.5800, -67.864
1525.5900,-210.000
1525.6000,-210.000
1525.6100,-210.000
1525.6200,-210.000
1525.6300,-210.000
1525.6400, -67.157
1525.6500,-210.000
1525.6600, -68.316
1525.6700, -84.243
1525.6800,-210.000
1525.6900, -81.476
1525.7000, -83.906
1525.7100, -69.182
1525.7200, -70.461
1525.7300, -74.725
1525.7400, -77.085
1525.7500, -77.481
1525.7600,-210.000
1525.7700, -75.182
1525.7800, -70.797
1525.7900,-210.000
1525.8000,-210.000
1525.8100,-210.000
1525.8200, -67.322
1525.8300,-210.000
1525.8400, -73.637
1525.8500, -68.090
1525.8600, -68.278
1525.8700, -73.819
1525.8800, -69.109
1525.8900, -67.809
1525.9000, -70.316
1525.9100,-210.000
1525.9200,-210.000
1525.9300,-210.000
1525.9400, -70.990
1525.9500,-210.000
1525.9600,-210.000
1525.9700, -65.565
1525.9800, -70.547
1525.9900, -73.227
1526.0000,-210.000
1526.0100,-210.000
1526.0200,-210.000
1526.0300,-210.000
1526.0400, -73.969
1526.0500, -65.542
1526.0600,-210.000
1526.0700, -75.266
1526.0800,-210.000
1526.0900,-210.000
1526.1000, -71.312
1526.1100, -78.673
1526.1200, -70.930
1526.1300, -67.486
1526.1400,-210.000
1526.1500, -65.774
1526.1600, -69.317
1526.1700, -72.714
1526.1800, -68.088
1526.1900, -67.408
1526.2000,-210.000
1526.2100,-210.000
1526.2200, -73.135
1526.2300, -70.392
1526.2400,-210.000
1526.2500, -70.118
1526.2600, -68.319
1526.2700, -82.020
1526.2800,-210.000
1526.2900,-210.000
1526.3000, -69.190
1526.3100,-210.000
1526.3200,-210.000
1526.3300,-210.000
1526.3400,-210.000
1526.3500,-210.000
1526.3600, -66.746
1526.3700,-210.000
1526.3800,-210.000
1526.3900, -66.844
1526.4000, -67.031
1526.4100,-210.000
1526.4200,-210.000
1526.4300,-210.000
1526.4400,-210.000
1526.4500,-210.000
1526.4600, -69.281
1526.4700,-210.000
1526.4800, -70.103
1526.4900,-210.000
1526.5000,-210.000
1526.5100,-210.000
1526.5200, -68.413
1526.5300,-210.000
1526.5400,-210.000
1526.5500, -71.426
1526.5600, -68.816
1526.5700,-210.000
1526.5800,-210.000
1526.5900,-210.000
1526.6000,-210.000
1526.6100,-210.000
1526.6200, -70.803
1526.6300,-210.000
1526.6400,-210.000
1526.6500,-210.000
1526.6600, -72.789
1526.6700, -67.873
1526.6800, -72.055
1526.6900, -66.444
1526.7000, -72.744
1526.7100, -67.672
1526.7200,-210.000
1526.7300,-210.000
1526.7400, -66.076
1526.7500, -69.538
1526.7600,-210.000
1526.7700,-210.000
1526.7800, -66.035
1526.7900,-210.000
1526.8000,-210.000
1526.8100, -75.614
1526.8200, -67.824
1526.8300,-210.000
1526.8400,-210.000
1526.8500, -75.608
1526.8600, -67.707
1526.8700,-210.000
1526.8800,-210.000
1526.8900,-210.000
1526.9000,-210.000
1526.9100,-210.000
1526.9200, -74.374
1526.9300,-210.000
1526.9400, -80.721
1526.9500, -83.700
1526.9600,-210.000
1526.9700,-210.000
1526.9800, -71.648
1526.9900, -70.293
1527.0000,-210.000
1527.0100, -80.538
1527.0200, -69.630
1527.0300,-210.000
1527.0400,-210.000
1527.0500, -68.999
1527.0600,-210.000
1527.0700,-210.000
1527.0800,-210.000
1527.0900, -71.839
1527.1000, -70.739
1527.1100,-210.000
1527.1200, -72.826
1527.1300, -67.738
1527.1400, -68.945
1527.1500,-210.000
1527.1600, -65.476
1527.1700, -69.911
1527.1800,-210.000
1527.1900,-210.000
1527.2000, -72.510
1527.2100, -67.404
1527.2200, -72.661
1527.2300, -68.173
1527.2400,-210.000
1527.2500, -66.531
1527.2600,-210.000
1527.2700,-210.000
1527.2800,-210.000
1527.2900,-210.000
1527.3000,-210.000
1527.3100,-210.000
1527.3200, -66.631
1527.3300, -65.500
1527.3400, -79.369
1527.3500, -70.084
1527.3600,-210.000
1527.3700,-210.000
1527.3800,-210.000
1527.3900, -69.684
1527.4000, -67.931
1527.4100, -72.189
1527.4200, -73.400
1527.4300,-210.000
1527.4400,-210.000
1527.4500, -76.801
1527.4600, -70.417
1527.4700,-210.000
1527.4800,-210.000
1527.4900,-210.000
1527.5000,-210.000
1527.5100,-210.000
1527.5200,-210.000
1527.5300,-210.000
1527.5400, -69.522
1527.5500,-210.000
1527.5600,-210.000
1527.5700,-210.000
1527.5800, -72.864
1527.5900, -70.279
1527.6000,-210.000
1527.6100,-210.000
1527.6200,-210.000
1527.6300,-210.000
1527.6400,-210.000
1527.6500, -75.201
1527.6600, -66.136
1527.6700,-210.000
1527.6800, -70.612
1527.6900, -67.639
1527.7000,-210.000
1527.7100,-210.000
1527.7200, -71.518
1527.7300,-210.000
1527.7400,-210.000
1527.7500,-210.000
1527.7600,-210.000
1527.7700,-210.000
1527.7800, -72.564
1527.7900,-210.000
1527.8000,-210.000
1527.8100,-210.000
1527.8200,-210.000
1527.8300,-210.000
1527.8400,-210.000
1527.8500,-210.000
1527.8600,-210.000
1527.8700,-210.000
1527.8800, -66.569
1527.8900, -78.282
1527.9000, -80.119
1527.9100,-210.000
1527.9200,-210.000
1527.9300, -80.927
1527.9400,-210.000
1527.9500,-210.000
1527.9600, -66.338
1527.9700,-210.000
1527.9800,-210.000
1527.9900, -72.952
1528.0000, -78.121
1528.0100, -65.543
1528.0200,-210.000
1528.0300,-210.000
1528.0400, -66.211
1528.0500, -68.419
1528.0600, -75.374
1528.0700,-210.000
1528.0800, -68.423
1528.0900,-210.000
1528.1000, -69.958
1528.1100,-210.000
1528.1200, -69.728
1528.1300, -63.738
1528.1400, -73.569
1528.1500,-210.000
1528.1600, -69.544
1528.1700, -67.223
1528.1800, -71.677
1528.1900, -73.023
1528.2000, -68.642
1528.2100, -69.270
1528.2200, -67.557
1528.2300, -68.387
1528.2400, -69.132
1528.2500, -67.619
1528.2600,-210.000
1528.2700,-210.000
1528.2800,-210.000
1528.2900,-210.000
1528.3000, -71.932
1528.3100, -69.905
1528.3200, -69.306
1528.3300, -70.174
1528.3400, -71.927
1528.3500, -66.006
1528.3600, -68.854
1528.3700,-210.000
1528.3800, -67.445
1528.3900,-210.000
1528.4000, -67.055
1528.4100, -66.713
1528.4200,-210.000
1528.4300,-210.000
1528.4400, -67.212
1528.4500,-210.000
1528.4600,-210.000
1528.4700,-210.000
1528.4800, -70.325
1528.4900, -68.036
1528.5000, -75.938
1528.5100, -66.961
1528.5200,-210.000
1528.5300,-210.000
1528.5400, -69.309
1528.5500,-210.000
1528.5600, -71.538
1528.5700, -78.486
1528.5800,-210.000
1528.5900,-210.000
1528.6000,-210.000
1528.6100, -67.675
1528.6200,-210.000
1528.6300, -78.326
1528.6400, -69.259
1528.6500,-210.000
1528.6600, -71.699
1528.6700, -70.965
1528.6800, -68.490
1528.6900, -67.584
1528.7000, -71.538
1528.7100,-210.000
1528.7200,-210.000
1528.7300, -70.691
1528.7400,-210.000
1528.7500, -69.352
1528.7600,-210.000
1528.7700,-210.000
1528.7800, -70.077
1528.7900, -69.054
1528.8000, -79.682
1528.8100,-210.000
1528.8200,-210.000
1528.8300, -68.295
1528.8400, -75.121
1528.8500, -68.772
1528.8600, -66.436
1528.8700, -69.384
1528.8800, -70.599
1528.8900, -73.776
1528.9000, -71.829
1528.9100, -66.661
1528.9200,-210.000
1528.9300,-210.000
1528.9400,-210.000
1528.9500,-210.000
1528.9600, -68.533
1528.9700,-210.000
1528.9800, -68.722
1528.9900,-210.000
1529.0000,-210.000
1529.0100,-210.000
1529.0200,-210.000
1529.0300, -63.634
1529.0400, -67.684
1529.0500,-210.000
1529.0600,-210.000
1529.0700, -71.024
1529.0800, -75.882
1529.0900, -68.444
1529.1000,-210.000
1529.1100,-210.000
1529.1200,-210.000
1529.1300, -70.282
1529.1400,-210.000
1529.1500, -66.144
1529.1600,-210.000
1529.1700,-210.000
1529.1800, -68.997
1529.1900,-210.000
1529.2000, -69.528
1529.2100,-210.000
1529.2200, -74.905
1529.2300,-210.000
1529.2400, -69.939
1529.2500,-210.000
1529.2600, -76.899
1529.2700,-210.000
1529.2800,-210.000
1529.2900, -71.859
1529.3000, -70.631
1529.3100,-210.000
1529.3200, -66.518
1529.3300,-210.000
1529.3400,-210.000
1529.3500, -71.297
1529.3600,-210.000
1529.3700, -68.171
1529.3800, -73.897
1529.3900,-210.000
1529.4000,-210.000
1529.4100, -70.601
1529.4200, -72.314
1529.4300,-210.000
1529.4400,-210.000
1529.4500, -67.518
1529.4600, -75.654
1529.4700,-210.000
1529.4800, -70.228
1529.4900,-210.000
1529.5000,-210.000
1529.5100, -64.885
1529.5200, -68.713
1529.5300,-210.000
1529.5400, -73.545
1529.5500,-210.000
1529.5600, -75.579
1529.5700, -67.639
1529.5800,-210.000
1529.5900, -67.127
1529.6000,-210.000
1529.6100,-210.000
1529.6200,-210.000
1529.6300, -90.082
1529.6400,-210.000
1529.6500, -69.091
1529.6600,-210.000
1529.6700,-210.000
1529.6800,-210.000
1529.6900,-210.000
1529.7000,-210.000
1529.7100,-210.000
1529.7200,-210.000
1529.7300, -89.246
1529.7400, -65.069
1529.7500,-210.000
1529.7600,-210.000
1529.7700,-210.000
1529.7800, -62.256
1529.7900,-210.000
1529.8000,-210.000
1529.8100,-210.000
1529.8200,-210.000
1529.8300, -73.940
1529.8400, -72.534
1529.8500,-210.000
1529.8600,-210.000
1529.8700, -79.135
1529.8800,-210.000
1529.8900,-210.000
1529.9000, -67.218
1529.9100, -65.179
1529.9200,-210.000
1529.9300,-210.000
1529.9400, -70.425
1529.9500,-210.000
1529.9600, -75.556
1529.9700, -69.784
1529.9800,-210.000
1529.9900, -66.428
1530.0000,-210.000
1530.0100,-210.000
1530.0200, -77.714
1530.0300, -70.492
1530.0400, -70.070
1530.0500,-210.000
1530.0600,-210.000
1530.0700, -66.531
1530.0800,-210.000
1530.0900, -69.261
1530.1000, -71.289
1530.1100, -69.445
1530.1200,-210.000
1530.1300,-210.000
1530.1400,-210.000
1530.1500,-210.000
1530.1600,-210.000
1530.1700,-210.000
1530.1800,-210.000
1530.1900,-210.000
1530.2000, -68.643
1530.2100, -75.327
1530.2200,-210.000
1530.2300, -65.029
1530.2400, -65.261
1530.2500,-210.000
1530.2600,-210.000
1530.2700, -65.922
1530.2800, -71.724
1530.2900,-210.000
1530.3000, -82.484
1530.3100,-210.000
1530.3200,-210.000
1530.3300, -66.635
1530.3400,-210.000
1530.3500, -66.587
1530.3600, -66.101
1530.3700, -67.811
1530.3800,-210.000
1530.3900,-210.000
1530.4000,-210.000
1530.4100, -67.574
1530.4200, -69.913
1530.4300, -73.877
1530.4400,-210.000
1530.4500, -81.545
1530.4600, -69.338
1530.4700, -79.253
1530.4800, -70.571
1530.4900, -74.827
1530.5000,-210.000
1530.5100,-210.000
1530.5200, -74.920
1530.5300, -68.428
1530.5400,-210.000
1530.5500,-210.000
1530.5600,-210.000
1530.5700,-210.000
1530.5800, -71.084
1530.5900,-210.000
1530.6000,-210.000
1530.6100,-210.000
1530.6200,-210.000
1530.6300,-210.000
1530.6400, -71.882
1530.6500,-210.000
1530.6600,-210.000
1530.6700, -74.467
1530.6800, -65.928
1530.6900, -65.078
1530.7000, -68.409
1530.7100, -66.150
1530.7200, -65.099
1530.7300, -70.873
1530.7400, -69.714
1530.7500,-210.000
1530.7600, -78.303
1530.7700,-210.000
1530.7800, -68.218
1530.7900,-210.000
1530.8000, -88.071
1530.8100, -72.902
1530.8200,-210.000
1530.8300,-210.000
1530.8400,-210.000
1530.8500, -75.412
1530.8600, -67.211
1530.8700, -65.702
1530.8800, -65.717
1530.8900, -68.240
1530.9000, -70.773
1530.9100,-210.000
1530.9200,-210.000
1530.9300, -75.111
1530.9400, -66.320
1530.9500, -67.156
1530.9600, -69.941
1530.9700,-210.000
1530.9800,-210.000
1530.9900,-210.000
1531.0000, -68.177
1531.0100, -69.334
1531.0200,-210.000
1531.0300, -69.205
1531.0400,-210.000
1531.0500, -78.548
1531.0600, -67.621
1531.0700,-210.000
1531.0800, -72.799
1531.0900, -65.527
1531.1000,-210.000
1531.1100,-210.000
1531.1200,-210.000
1531.1300,-210.000
1531.1400, -68.034
1531.1500,-210.000
1531.1600, -71.396
1531.1700, -69.505
1531.1800, -69.803
1531.1900, -95.123
1531.2000, -71.082
1531.2100,-210.000
1531.2200,-210.000
1531.2300,-210.000
1531.2400,-210.000
1531.2500,-210.000
1531.2600,-210.000
1531.2700,-210.000
1531.2800,-210.000
1531.2900, -71.968
1531.3000, -71.194
1531.3100, -69.748
1531.3200,-210.000
1531.3300, -76.393
1531.3400, -75.511
1531.3500, -71.836
1531.3600,-210.000
1531.3700, -66.741
1531.3800,-210.000
1531.3900,-210.000
1531.4000,-210.000
1531.4100,-210.000
1531.4200, -70.633
1531.4300, -73.788
1531.4400,-210.000
1531.4500,-210.000
1531.4600,-210.000
1531.4700, -67.679
1531.4800,-210.000
1531.4900, -77.755
1531.5000, -68.909
1531.5100,-210.000
1531.5200,-210.000
1531.5300,-210.000
1531.5400,-210.000
1531.5500, -65.479
1531.5600, -65.548
1531.5700, -68.163
1531.5800, -68.301
1531.5900,-210.000
1531.6000,-210.000
1531.6100, -66.971
1531.6200,-210.000
1531.6300, -65.391
1531.6400, -74.799
1531.6500,-210.000
1531.6600, -76.951
1531.6700,-210.000
1531.6800,-210.000
1531.6900, -68.539
1531.7000,-210.000
1531.7100, -68.525
1531.7200, -64.617
1531.7300, -71.278
1531.7400,-210.000
1531.7500, -68.560
1531.7600, -77.715
1531.7700, -70.740
1531.7800,-210.000
1531.7900, -68.427
1531.8000, -69.210
1531.8100, -70.563
1531.8200,-210.000
1531.8300,-210.000
1531.8400, -69.298
1531.8500, -68.852
1531.8600, -66.450
1531.8700, -79.743
1531.8800,-210.000
1531.8900,-210.000
1531.9000,-210.000
1531.9100, -72.203
1531.9200, -77.979
1531.9300,-210.000
1531.9400,-210.000
1531.9500, -65.723
1531.9600, -67.174
1531.9700, -68.959
1531.9800, -69.171
1531.9900, -69.883
1532.0000, -70.388
1532.0100, -70.101
1532.0200, -69.964
1532.0300,-210.000
1532.0400,-210.000
1532.0500,-210.000
1532.0600, -79.803
1532.0700, -71.375
1532.0800, -81.945
1532.0900,-210.000
1532.1000,-210.000
1532.1100,-210.000
1532.1200,-210.000
1532.1300,-210.000
1532.1400, -67.882
1532.1500, -74.665
1532.1600, -67.068
1532.1700, -66.036
1532.1800,-210.000
1532.1900,-210.000
1532.2000,-210.000
1532.2100, -76.383
1532.2200, -68.326
1532.2300, -73.266
1532.2400,-210.000
1532.2500, -70.584
1532.2600,-210.000
1532.2700,-210.000
1532.2800,-210.000
1532.2900,-210.000
1532.3000,-210.000
1532.3100,-210.000
1532.3200,-210.000
1532.3300, -67.539
1532.3400,-210.000
1532.3500, -70.084
1532.3600, -67.951
1532.3700, -69.183
1532.3800,-210.000
1532.3900, -69.984
1532.4000,-210.000
1532.4100,-210.000
1532.4200,-210.000
1532.4300,-210.000
1532.4400, -67.280
1532.4500,-210.000
1532.4600, -77.785
1532.4700, -70.041
1532.4800,-210.000
1532.4900,-210.000
1532.5000,-210.000
1532.5100,-210.000
1532.5200,-210.000
1532.5300,-210.000
1532.5400, -78.632
1532.5500,-210.000
1532.5600,-210.000
1532.5700, -71.661
1532.5800, -67.841
1532.5900, -66.137
1532.6000, -73.209
1532.6100,-210.000
1532.6200,-210.000
1532.6300,-210.000
1532.6400,-210.000
1532.6500, -71.261
1532.6600, -68.192
1532.6700,-210.000
1532.6800,-210.000
1532.6900, -77.968
1532.7000, -64.745
1532.7100,-210.000
1532.7200,-210.000
1532.7300,-210.000
1532.7400,-210.000
1532.7500, -66.009
1532.7600, -68.551
1532.7700, -68.946
1532.7800, -69.065
1532.7900, -70.101
1532.8000, -67.321
1532.8100, -65.135
1532.8200,-210.000
1532.8300,-210.000
1532.8400, -70.437
1532.8500, -84.506
1532.8600,-210.000
1532.8700,-210.000
1532.8800,-210.000
1532.8900,-210.000
1532.9000,-210.000
1532.9100, -66.369
1532.9200,-210.000
1532.9300,-210.000
1532.9400, -70.733
1532.9500,-210.000
1532.9600,-210.000
1532.9700, -73.149
1532.9800, -68.951
1532.9900,-210.000
1533.0000, -70.321
1533.0100, -68.069
1533.0200,-210.000
1533.0300,-210.000
1533.0400,-210.000
1533.0500,-210.000
1533.0600,-210.000
1533.0700,-210.000
1533.0800,-210.000
1533.0900,-210.000
1533.1000,-210.000
1533.1100,-210.000
1533.1200, -65.352
1533.1300, -72.077
1533.1400,-210.000
1533.1500,-210.000
1533.1600,-210.000
1533.1700,-210.000
1533.1800, -65.761
1533.1900,-210.000
1533.2000, -76.386
1533.2100, -67.465
1533.2200,-210.000
1533.2300, -77.584
1533.2400,-210.000
1533.2500,-210.000
1533.2600, -69.421
1533.2700,-210.000
1533.2800, -67.896
1533.2900, -65.859
1533.3000,-210.000
1533.3100,-210.000
1533.3200,-210.000
1533.3300,-210.000
1533.3400,-210.000
1533.3500,-210.000
1533.3600,-210.000
1533.3700,-210.000
1533.3800, -83.093
1533.3900,-210.000
1533.4000, -71.138
1533.4100, -67.617
1533.4200, -71.619
1533.4300,-210.000
1533.4400, -70.424
1533.4500, -76.368
1533.4600,-210.000
1533.4700,-210.000
1533.4800,-210.000
1533.4900,-210.000
1533.5000, -74.971
1533.5100, -76.839
1533.5200, -70.288
1533.5300,-210.000
1533.5400, -70.298
1533.5500, -72.311
1533.5600, -69.627
1533.5700, -75.739
1533.5800, -67.626
1533.5900, -67.139
1533.6000, -72.142
1533.6100, -71.431
1533.6200, -72.753
1533.6300,-210.000
1533.6400,-210.000
1533.6500, -66.550
1533.6600, -67.639
1533.6700, -66.402
1533.6800, -66.462
1533.6900, -70.517
1533.7000, -73.363
1533.7100,-210.000
1533.7200,-210.000
1533.7300,-210.000
1533.7400, -67.229
1533.7500,-210.000
1533.7600, -65.899
1533.7700,-210.000
1533.7800, -73.427
1533.7900, -68.275
1533.8000,-210.000
1533.8100,-210.000
1533.8200, -68.999
1533.8300,-210.000
1533.8400, -69.268
1533.8500, -81.073
1533.8600,-210.000
1533.8700,-210.000
1533.8800,-210.000
1533.8900,-210.000
1533.9000, -73.472
1533.9100, -77.602
1533.9200, -72.808
1533.9300, -70.052
1533.9400, -68.234
1533.9500, -64.590
1533.9600, -65.626
1533.9700, -69.695
1533.9800, -73.692
1533.9900,-210.000
1534.0000, -69.583
1534.0100, -68.088
1534.0200,-210.000
1534.0300, -69.705
1534.0400,-210.000
1534.0500, -77.845
1534.0600,-210.000
1534.0700,-210.000
1534.0800,-210.000
1534.0900, -77.452
1534.1000, -65.959
1534.1100, -66.110
1534.1200,-210.000
1534.1300,-210.000
1534.1400, -68.944
1534.1500, -89.430
1534.1600,-210.000
1534.1700, -68.925
1534.1800, -70.817
1534.1900, -72.405
1534.2000, -64.962
1534.2100, -66.346
1534.2200, -68.157
1534.2300, -77.108
1534.2400,-210.000
1534.2500, -69.524
1534.2600,-210.000
1534.2700, -67.305
1534.2800,-210.000
1534.2900, -75.565
1534.3000, -72.651
1534.3100, -67.497
1534.3200, -66.551
1534.3300, -65.135
1534.3400, -64.406
1534.3500,-210.000
1534.3600,-210.000
1534.3700, -68.908
1534.3800, -65.101
1534.3900, -66.238
1534.4000, -73.443
1534.4100, -70.081
1534.4200, -75.015
1534.4300, -65.962
1534.4400,-210.000
1534.4500, -67.246
1534.4600, -66.673
1534.4700, -64.984
1534.4800, -66.555
1534.4900, -65.849
1534.5000, -67.151
1534.5100, -67.394
1534.5200, -64.520
1534.5300, -71.186
1534.5400, -63.540
1534.5500,-210.000
1534.5600, -67.573
1534.5700, -65.973
1534.5800, -67.600
1534.5900, -63.852
1534.6000, -64.681
1534.6100, -64.327
1534.6200, -65.378
1534.6300, -64.654
1534.6400, -64.171
1534.6500, -65.112
1534.6600, -66.543
1534.6700, -64.394
1534.6800, -64.317
1534.6900, -66.764
1534.7000, -64.844
1534.7100, -67.047
1534.7200, -65.796
1534.7300, -70.780
1534.7400, -65.948
1534.7500, -63.646
1534.7600, -65.612
1534.7700, -64.026
1534.7800, -67.100
1534.7900, -65.064
1534.8000, -64.108
1534.8100, -65.127
1534.8200, -62.188
1534.8300, -62.935
1534.8400, -63.324
1534.8500, -64.176
1534.8600, -62.312
1534.8700, -61.899
1534.8800, -62.407
1534.8900, -62.348
1534.9000, -65.174
1534.9100, -63.201
1534.9200, -62.525
1534.9300, -62.359
1534.9400, -63.077
1534.9500, -63.219
1534.9600, -66.885
1534.9700, -64.425
1534.9800, -62.019
1534.9900, -62.602
1535.0000, -63.816
1535.0100, -61.484
1535.0200, -63.005
1535.0300, -63.185
1535.0400, -62.980
1535.0500, -61.899
1535.0600, -62.188
1535.0700, -62.943
1535.0800, -60.349
1535.0900, -61.389
1535.1000, -61.579
1535.1100, -62.539
1535.1200, -62.156
1535.1300, -62.487
1535.1400, -61.935
1535.1500, -60.141
1535.1600, -63.076
1535.1700, -61.686
1535.1800, -59.998
1535.1900, -61.935
1535.2000, -60.969
1535.2100, -60.527
1535.2200, -60.912
1535.2300, -61.023
1535.2400, -61.343
1535.2500, -60.655
1535.2600, -59.685
1535.2700, -60.374
1535.2800, -59.970
1535.2900, -60.106
1535.3000, -60.432
1535.3100, -60.121
1535.3200, -59.749
1535.3300, -59.886
1535.3400, -59.716
1535.3500, -59.794
1535.3600, -59.689
1535.3700, -60.232
1535.3800, -59.463
1535.3900, -60.530
1535.4000, -59.742
1535.4100, -59.417
1535.4200, -58.896
1535.4300, -58.682
1535.4400, -59.215
1535.4500, -58.483
1535.4600, -58.939
1535.4700, -58.061
1535.4800, -59.215
1535.4900, -58.946
1535.5000, -58.685
1535.5100, -59.158
1535.5200, -58.876
1535.5300, -59.054
1535.5400, -58.830
1535.5500, -57.887
1535.5600, -58.555
1535.5700, -59.124
1535.5800, -58.193
1535.5900, -58.078
1535.6000, -58.339
1535.6100, -57.779
1535.6200, -58.123
1535.6300, -58.784
1535.6400, -57.225
1535.6500, -57.549
1535.6600, -58.056
1535.6700, -57.745
1535.6800, -57.381
1535.6900, -57.266
1535.7000, -57.752
1535.7100, -57.918
1535.7200, -57.585
1535.7300, -57.314
1535.7400, -57.147
1535.7500, -57.594
1535.7600, -56.910
1535.7700, -56.824
1535.7800, -57.224
1535.7900, -56.329
1535.8000, -56.568
1535.8100, -56.561
1535.8200, -56.781
1535.8300, -56.407
1535.8400, -56.704
1535.8500, -56.910
1535.8600, -56.682
1535.8700, -55.838
1535.8800, -56.223
1535.8900, -56.804
1535.9000, -56.202
1535.9100, -55.980
1535.9200, -56.051
1535.9300, -56.244
1535.9400, -55.942
1535.9500, -55.552
1535.9600, -55.866
1535.9700, -55.677
1535.9800, -55.613
1535.9900, -55.642
1536.0000, -55.614
1536.0100, -55.781
1536.0200, -55.455
1536.0300, -55.768
1536.0400, -55.800
1536.0500, -55.819
1536.0600, -55.591
1536.0700, -55.273
1536.0800, -55.317
1536.0900, -55.087
1536.1000, -55.232
1536.1100, -55.069
1536.1200, -54.903
1536.1300, -54.718
1536.1400, -54.977
1536.1500, -54.872
1536.1600, -54.728
1536.1700, -54.828
1536.1800, -54.739
1536.1900, -54.747
1536.2000, -54.409
1536.2100, -54.485
1536.2200, -54.208
1536.2300, -54.229
1536.2400, -54.435
1536.2500, -54.096
1536.2600, -54.329
1536.2700, -54.078
1536.2800, -54.204
1536.2900, -54.070
1536.3000, -53.952
1536.3100, -53.914
1536.3200, -53.949
1536.3300, -53.803
1536.3400, -53.992
1536.3500, -53.896
1536.3600, -53.843
1536.3700, -53.891
1536.3800, -53.707
1536.3900, -53.374
1536.4000, -53.625
1536.4100, -53.339
1536.4200, -53.426
1536.4300, -53.480
1536.4400, -53.290
1536.4500, -53.152
1536.4600, -53.104
1536.4700, -53.200
1536.4800, -53.145
1536.4900, -53.064
1536.5000, -53.124
1536.5100, -53.067
1536.5200, -52.922
1536.5300, -53.089
1536.5400, -52.979
1536.5500, -52.766
1536.5600, -52.760
1536.5700, -52.632
1536.5800, -52.449
1536.5900, -52.556
1536.6000, -52.521
1536.6100, -52.517
1536.6200, -52.314
1536.6300, -52.331
1536.6400, -52.380
1536.6500, -52.273
1536.6600, -52.147
1536.6700, -52.345
1536.6800, -51.990
1536.6900, -52.105
1536.7000, -51.894
1536.7100, -52.056
1536.7200, -52.002
1536.7300, -51.809
1536.7400, -51.763
1536.7500, -51.558
1536.7600, -51.488
1536.7700, -51.726
1536.7800, -51.603
1536.7900, -51.877
1536.8000, -51.694
1536.8100, -51.441
1536.8200, -51.540
1536.8300, -51.467
1536.8400, -51.338
1536.8500, -51.315
1536.8600, -51.371
1536.8700, -51.270
1536.8800, -51.108
1536.8900, -51.201
1536.9000, -51.068
1536.9100, -51.049
1536.9200, -50.996
1536.9300, -50.952
1536.9400, -50.873
1536.9500, -50.885
1536.9600, -50.828
1536.9700, -50.770
1536.9800, -50.673
1536.9900, -50.677
1537.0000, -50.682
1537.0100, -50.636
1537.0200, -50.464
1537.0300, -50.535
1537.0400, -50.414
1537.0500, -50.437
1537.0600, -50.305
1537.0700, -50.374
1537.0800, -50.299
1537.0900, -50.253
1537.1000, -50.266
1537.1100, -50.151
1537.1200, -50.041
1537.1300, -50.059
1537.1400, -49.995
1537.1500, -49.943
1537.1600, -49.902
1537.1700, -49.739
1537.1800, -49.795
1537.1900, -49.670
1537.2000, -49.697
1537.2100, -49.705
1537.2200, -49.693
1537.2300, -49.617
1537.2400, -49.527
1537.2500, -49.507
1537.2600, -49.325
1537.2700, -49.408
1537.2800, -49.389
1537.2900, -49.381
1537.3000, -49.321
1537.3100, -49.195
1537.3200, -49.236
1537.3300, -49.226
1537.3400, -49.180
1537.3500, -49.049
1537.3600, -49.019
1537.3700, -48.916
1537.3800, -48.888
1537.3900, -48.892
1537.4000, -48.807
1537.4100, -48.784
1537.4200, -48.750
1537.4300, -48.682
1537.4400, -48.603
1537.4500, -48.600
1537.4600, -48.584
1537.4700, -48.544
1537.4800, -48.497
1537.4900, -48.519
1537.5000, -48.418
1537.5100, -48.392
1537.5200, -48.374
1537.5300, -48.283
1537.5400, -48.187
1537.5500, -48.144
1537.5600, -48.126
1537.5700, -48.089
1537.5800, -48.059
1537.5900, -48.088
1537.6000, -47.957
1537.6100, -47.891
1537.6200, -47.893
1537.6300, -47.900
1537.6400, -47.806
1537.6500, -47.793
1537.6600, -47.644
1537.6700, -47.703
1537.6800, -47.604
1537.6900, -47.616
1537.7000, -47.611
1537.7100, -47.485
1537.7200, -47.487
1537.7300, -47.368
1537.7400, -47.388
1537.7500, -47.368
1537.7600, -47.305
1537.7700, -47.253
1537.7800, -47.208
1537.7900, -47.163
1537.8000, -47.167
1537.8100, -47.156
1537.8200, -46.996
1537.8300, -47.032
1537.8400, -46.987
1537.8500, -46.970
1537.8600, -46.941
1537.8700, -46.806
1537.8800, -46.797
1537.8900, -46.773
1537.9000, -46.699
1537.9100, -46.682
1537.9200, -46.701
1537.9300, -46.627
1537.9400, -46.641
1537.9500, -46.514
1537.9600, -46.505
1537.9700, -46.491
1537.9800, -46.438
1537.9900, -46.367
1538.0000, -46.322
1538.0100, -46.285
1538.0200, -46.247
1538.0300, -46.246
1538.0400, -46.173
1538.0500, -46.105
1538.0600, -46.078
1538.0700, -46.053
1538.0800, -46.034
1538.0900, -45.973
1538.1000, -45.970
1538.1100, -45.927
1538.1200, -45.870
1538.1300, -45.832
1538.1400, -45.748
1538.1500, -45.740
1538.1600, -45.715
1538.1700, -45.653
1538.1800, -45.628
1538.1900, -45.583
1538.2000, -45.567
1538.2100, -45.543
1538.2200, -45.470
1538.2300, -45.435
1538.2400, -45.392
1538.2500, -45.398
1538.2600, -45.335
1538.2700, -45.290
1538.2800, -45.266
1538.2900, -45.242
1538.3000, -45.190
1538.3100, -45.146
1538.3200, -45.089
1538.3300, -45.076
1538.3400, -44.999
1538.3500, -45.004
1538.3600, -44.970
1538.3700, -44.928
1538.3800, -44.875
1538.3900, -44.858
1538.4000, -44.796
1538.4100, -44.739
1538.4200, -44.746
1538.4300, -44.723
1538.4400, -44.688
1538.4500, -44.637
1538.4600, -44.605
1538.4700, -44.579
1538.4800, -44.526
1538.4900, -44.500
1538.5000, -44.472
1538.5100, -44.429
1538.5200, -44.388
1538.5300, -44.355
1538.5400, -44.343
1538.5500, -44.290
1538.5600, -44.248
1538.5700, -44.228
1538.5800, -44.191
1538.5900, -44.164
1538.6000, -44.120
1538.6100, -44.067
1538.6200, -44.047
1538.6300, -44.006
1538.6400, -43.978
1538.6500, -43.944
1538.6600, -43.905
1538.6700, -43.851
1538.6800, -43.851
1538.6900, -43.810
1538.7000, -43.792
1538.7100, -43.730
1538.7200, -43.678
1538.7300, -43.662
1538.7400, -43.631
1538.7500, -43.583
1538.7600, -43.571
1538.7700, -43.539
1538.7800, -43.507
1538.7900, -43.470
1538.8000, -43.429
1538.8100, -43.415
1538.8200, -43.426
1538.8300, -43.369
1538.8400, -43.318
1538.8500, -43.279
1538.8600, -43.256
1538.8700, -43.193
1538.8800, -43.178
1538.8900, -43.164
1538.9000, -43.111
1538.9100, -43.089
1538.9200, -43.041
1538.9300, -43.008
1538.9400, -42.976
1538.9500, -42.966
1538.9600, -42.948
1538.9700, -42.902
1538.9800, -42.865
1538.9900, -42.856
1539.0000, -42.824
1539.0100, -42.794
1539.0200, -42.759
1539.0300, -42.725
1539.0400, -42.684
1539.0500, -42.682
1539.0600, -42.646
1539.0700, -42.592
1539.0800, -42.579
1539.0900, -42.550
1539.1000, -42.531
1539.1100, -42.493
1539.1200, -42.448
1539.1300, -42.433
1539.1400, -42.406
1539.1500, -42.378
1539.1600, -42.345
1539.1700, -42.302
1539.1800, -42.295
1539.1900, -42.256
1539.2000, -42.217
1539.2100, -42.200
1539.2200, -42.156
1539.2300, -42.139
1539.2400, -42.125
1539.2500, -42.085
1539.2600, -42.053
1539.2700, -42.030
1539.2800, -42.019
1539.2900, -41.966
1539.3000, -41.940
1539.3100, -41.941
1539.3200, -41.907
1539.3300, -41.870
1539.3400, -41.849
1539.3500, -41.820
1539.3600, -41.796
1539.3700, -41.756
1539.3800, -41.737
1539.3900, -41.707
1539.4000, -41.687
1539.4100, -41.668
1539.4200, -41.625
1539.4300, -41.590
1539.4400, -41.582
1539.4500, -41.547
1539.4600, -41.532
1539.4700, -41.508
1539.4800, -41.484
1539.4900, -41.441
1539.5000, -41.434
1539.5100, -41.403
1539.5200, -41.388
1539.5300, -41.346
1539.5400, -41.319
1539.5500, -41.308
1539.5600, -41.279
1539.5700, -41.246
1539.5800, -41.233
1539.5900, -41.200
1539.6000, -41.182
1539.6100, -41.144
1539.6200, -41.114
1539.6300, -41.099
1539.6400, -41.078
1539.6500, -41.071
1539.6600, -41.039
1539.6700, -41.007
1539.6800, -40.984
1539.6900, -40.962
1539.7000, -40.940
1539.7100, -40.918
1539.7200, -40.908
1539.7300, -40.883
1539.7400, -40.859
1539.7500, -40.831
1539.7600, -40.803
1539.7700, -40.785
1539.7800, -40.770
1539.7900, -40.743
1539.8000, -40.704
1539.8100, -40.698
1539.8200, -40.692
1539.8300, -40.648
1539.8400, -40.630
1539.8500, -40.609
1539.8600, -40.584
1539.8700, -40.559
1539.8800, -40.546
1539.8900, -40.522
1539.9000, -40.507
1539.9100, -40.477
1539.9200, -40.457
1539.9300, -40.441
1539.9400, -40.418
1539.9500, -40.393
1539.9600, -40.389
1539.9700, -40.350
1539.9800, -40.332
1539.9900, -40.319
1540.0000, -40.297
1540.0100, -40.258
1540.0200, -40.252
1540.0300, -40.233
1540.0400, -40.217
1540.0500, -40.189
1540.0600, -40.175
1540.0700, -40.148
1540.0800, -40.126
1540.0900, -40.099
1540.1000, -40.090
1540.1100, -40.068
1540.1200, -40.052
1540.1300, -40.030
1540.1400, -40.003
1540.1500, -39.984
1540.1600, -39.961
1540.1700, -39.947
1540.1800, -39.917
1540.1900, -39.906
1540.2000, -39.874
1540.2100, -39.859
1540.2200, -39.839
1540.2300, -39.826
1540.2400, -39.811
1540.2500, -39.776
1540.2600, -39.763
1540.2700, -39.749
1540.2800, -39.730
1540.2900, -39.699
1540.3000, -39.684
1540.3100, -39.663
1540.3200, -39.647
1540.3300, -39.629
1540.3400, -39.608
1540.3500, -39.584
1540.3600, -39.559
1540.3700, -39.538
1540.3800, -39.528
1540.3900, -39.499
1540.4000, -39.470
1540.4100, -39.454
1540.4200, -39.445
1540.4300, -39.409
1540.4400, -39.389
1540.4500, -39.376
1540.4600, -39.367
1540.4700, -39.342
1540.4800, -39.326
1540.4900, -39.304
1540.5000, -39.280
1540.5100, -39.266
1540.5200, -39.247
1540.5300, -39.216
1540.5400, -39.195
1540.5500, -39.171
1540.5600, -39.156
1540.5700, -39.131
1540.5800, -39.105
1540.5900, -39.084
1540.6000, -39.066
1540.6100, -39.045
1540.6200, -39.027
1540.6300, -38.997
1540.6400, -38.991
1540.6500, -38.955
1540.6600, -38.943
1540.6700, -38.916
1540.6800, -38.898
1540.6900, -38.864
1540.7000, -38.841
1540.7100, -38.828
1540.7200, -38.789
1540.7300, -38.774
1540.7400, -38.737
1540.7500, -38.727
1540.7600, -38.695
1540.7700, -38.678
1540.7800, -38.658
1540.7900, -38.614
1540.8000, -38.603
1540.8100, -38.569
1540.8200, -38.552
1540.8300, -38.532
1540.8400, -38.502
1540.8500, -38.475
1540.8600, -38.463
1540.8700, -38.423
1540.8800, -38.406
1540.8900, -38.377
1540.9000, -38.340
1540.9100, -38.314
1540.9200, -38.289
1540.9300, -38.250
1540.9400, -38.222
1540.9500, -38.192
1540.9600, -38.167
1540.9700, -38.141
1540.9800, -38.095
1540.9900, -38.069
1541.0000, -38.049
1541.0100, -38.014
1541.0200, -37.979
1541.0300, -37.945
1541.0400, -37.918
1541.0500, -37.892
1541.0600, -37.853
1541.0700, -37.822
1541.0800, -37.786
1541.0900, -37.746
1541.1000, -37.709
1541.1100, -37.684
1541.1200, -37.640
1541.1300, -37.598
1541.1400, -37.561
1541.1500, -37.527
1541.1600, -37.480
1541.1700, -37.450
1541.1800, -37.415
1541.1900, -37.375
1541.2000, -37.340
1541.2100, -37.298
1541.2200, -37.262
1541.2300, -37.226
1541.2400, -37.186
1541.2500, -37.141
1541.2600, -37.103
1541.2700, -37.058
1541.2800, -37.013
1541.2900, -36.968
1541.3000, -36.915
1541.3100, -36.863
1541.3200, -36.816
1541.3300, -36.770
1541.3400, -36.711
1541.3500, -36.656
1541.3600, -36.614
1541.3700, -36.572
1541.3800, -36.518
1541.3900, -36.470
1541.4000, -36.427
1541.4100, -36.375
1541.4200, -36.319
1541.4300, -36.276
1541.4400, -36.228
1541.4500, -36.163
1541.4600, -36.108
1541.4700, -36.055
1541.4800, -35.999
1541.4900, -35.937
1541.5000, -35.879
1541.5100, -35.821
1541.5200, -35.754
1541.5300, -35.689
1541.5400, -35.620
1541.5500, -35.569
1541.5600, -35.509
1541.5700, -35.440
1541.5800, -35.385
1541.5900, -35.329
1541.6000, -35.254
1541.6100, -35.187
1541.6200, -35.127
1541.6300, -35.055
1541.6400, -34.979
1541.6500, -34.916
1541.6600, -34.838
1541.6700, -34.760
1541.6800, -34.697
1541.6900, -34.622
1541.7000, -34.544
1541.7100, -34.462
1541.7200, -34.396
1541.7300, -34.312
1541.7400, -34.239
1541.7500, -34.177
1541.7600, -34.110
1541.7700, -34.029
1541.7800, -33.948
1541.7900, -33.884
1541.8000, -33.800
1541.8100, -33.722
1541.8200, -33.649
1541.8300, -33.555
1541.8400, -33.467
1541.8500, -33.386
1541.8600, -33.298
1541.8700, -33.200
1541.8800, -33.108
1541.8900, -33.021
1541.9000, -32.914
1541.9100, -32.818
1541.9200, -32.744
1541.9300, -32.656
1541.9400, -32.563
1541.9500, -32.464
1541.9600, -32.385
1541.9700, -32.292
1541.9800, -32.204
1541.9900, -32.132
1542.0000, -32.044
1542.0100, -31.940
1542.0200, -31.836
1542.0300, -31.749
1542.0400, -31.636
1542.0500, -31.537
1542.0600, -31.443
1542.0700, -31.335
1542.0800, -31.220
1542.0900, -31.124
1542.1000, -31.029
1542.1100, -30.915
1542.1200, -30.817
1542.1300, -30.727
1542.1400, -30.613
1542.1500, -30.502
1542.1600, -30.410
1542.1700, -30.312
1542.1800, -30.196
1542.1900, -30.079
1542.2000, -29.976
1542.2100, -29.851
1542.2200, -29.730
1542.2300, -29.627
1542.2400, -29.491
1542.2500, -29.372
1542.2600, -29.256
1542.2700, -29.147
1542.2800, -29.010
1542.2900, -28.905
1542.3000, -28.802
1542.3100, -28.672
1542.3200, -28.560
1542.3300, -28.453
1542.3400, -28.347
1542.3500, -28.226
1542.3600, -28.110
1542.3700, -28.002
1542.3800, -27.866
1542.3900, -27.729
1542.4000, -27.611
1542.4100, -27.486
1542.4200, -27.339
1542.4300, -27.198
1542.4400, -27.069
1542.4500, -26.918
1542.4600, -26.769
1542.4700, -26.653
1542.4800, -26.505
1542.4900, -26.374
1542.5000, -26.253
1542.5100, -26.123
1542.5200, -25.984
1542.5300, -25.850
1542.5400, -25.738
1542.5500, -25.594
1542.5600, -25.455
1542.5700, -25.321
1542.5800, -25.187
1542.5900, -25.024
1542.6000, -24.874
1542.6100, -24.741
1542.6200, -24.592
1542.6300, -24.424
1542.6400, -24.258
1542.6500, -24.130
1542.6600, -23.959
1542.6700, -23.815
1542.6800, -23.675
1542.6900, -23.534
1542.7000, -23.364
1542.7100, -23.212
1542.7200, -23.078
1542.7300, -22.910
1542.7400, -22.749
1542.7500, -22.595
1542.7600, -22.434
1542.7700, -22.241
1542.7800, -22.070
1542.7900, -21.912
1542.8000, -21.724
1542.8100, -21.536
1542.8200, -21.378
1542.8300, -21.212
1542.8400, -21.024
1542.8500, -20.863
1542.8600, -20.715
1542.8700, -20.544
1542.8800, -20.372
1542.8900, -20.235
1542.9000, -20.074
1542.9100, -19.906
1542.9200, -19.736
1542.9300, -19.584
1542.9400, -19.382
1542.9500, -19.163
1542.9600, -19.022
1542.9700, -18.841
1542.9800, -18.648
1542.9900, -18.441
1543.0000, -18.279
1543.0100, -18.091
1543.0200, -17.895
1543.0300, -17.717
1543.0400, -17.567
1543.0500, -17.386
1543.0600, -17.212
1543.0700, -17.062
1543.0800, -16.904
1543.0900, -16.735
1543.1000, -16.574
1543.1100, -16.433
1543.1200, -16.246
1543.1300, -16.077
1543.1400, -15.928
1543.1500, -15.774
1543.1600, -15.604
1543.1700, -15.437
1543.1800, -15.300
1543.1900, -15.125
1543.2000, -14.980
1543.2100, -14.861
1543.2200, -14.746
1543.2300, -14.613
1543.2400, -14.493
1543.2500, -14.385
1543.2600, -14.260
1543.2700, -14.150
1543.2800, -14.057
1543.2900, -13.957
1543.3000, -13.833
1543.3100, -13.721
1543.3200, -13.619
1543.3300, -13.510
1543.3400, -13.407
1543.3500, -13.324
1543.3600, -13.234
1543.3700, -13.137
1543.3800, -13.062
1543.3900, -13.006
1543.4000, -12.955
1543.4100, -12.912
1543.4200, -12.879
1543.4300, -12.842
1543.4400, -12.808
1543.4500, -12.782
1543.4600, -12.765
1543.4700, -12.747
1543.4800, -12.715
1543.4900, -12.682
1543.5000, -12.647
1543.5100, -12.612
1543.5200, -12.581
1543.5300, -12.557
1543.5400, -12.527
1543.5500, -12.494
1543.5600, -12.467
1543.5700, -12.453
1543.5800, -12.449
1543.5900, -12.451
1543.6000, -12.454
1543.6100, -12.456
1543.6200, -12.459
1543.6300, -12.467
1543.6400, -12.479
1543.6500, -12.492
1543.6600, -12.498
1543.6700, -12.495
1543.6800, -12.488
1543.6900, -12.483
1543.7000, -12.483
1543.7100, -12.485
1543.7200, -12.483
1543.7300, -12.479
1543.7400, -12.477
1543.7500, -12.483
1543.7600, -12.499
1543.7700, -12.518
1543.7800, -12.541
1543.7900, -12.557
1543.8000, -12.568
1543.8100, -12.581
1543.8200, -12.597
1543.8300, -12.612
1543.8400, -12.618
1543.8500, -12.611
1543.8600, -12.597
1543.8700, -12.583
1543.8800, -12.572
1543.8900, -12.565
1543.9000, -12.559
1543.9100, -12.551
1543.9200, -12.542
1543.9300, -12.541
1543.9400, -12.550
1543.9500, -12.568
1543.9600, -12.594
1543.9700, -12.615
1543.9800, -12.631
1543.9900, -12.650
1544.0000, -12.671
1544.0100, -12.690
1544.0200, -12.706
1544.0300, -12.709
1544.0400, -12.703
1544.0500, -12.690
1544.0600, -12.679
1544.0700, -12.670
1544.0800, -12.663
1544.0900, -12.649
1544.1000, -12.632
1544.1100, -12.621
1544.1200, -12.616
1544.1300, -12.622
1544.1400, -12.635
1544.1500, -12.645
1544.1600, -12.654
1544.1700, -12.660
1544.1800, -12.667
1544.1900, -12.679
1544.2000, -12.690
1544.2100, -12.693
1544.2200, -12.687
1544.2300, -12.673
1544.2400, -12.662
1544.2500, -12.657
1544.2600, -12.656
1544.2700, -12.654
1544.2800, -12.650
1544.2900, -12.646
1544.3000, -12.647
1544.3100, -12.659
1544.3200, -12.676
1544.3300, -12.697
1544.3400, -12.711
1544.3500, -12.718
1544.3600, -12.724
1544.3700, -12.731
1544.3800, -12.737
1544.3900, -12.737
1544.4000, -12.724
1544.4100, -12.702
1544.4200, -12.682
1544.4300, -12.660
1544.4400, -12.647
1544.4500, -12.638
1544.4600, -12.627
1544.4700, -12.616
1544.4800, -12.612
1544.4900, -12.619
1544.5000, -12.638
1544.5100, -12.663
1544.5200, -12.681
1544.5300, -12.696
1544.5400, -12.711
1544.5500, -12.727
1544.5600, -12.743
1544.5700, -12.755
1544.5800, -12.755
1544.5900, -12.746
1544.6000, -12.730
1544.6100, -12.714
1544.6200, -12.703
1544.6300, -12.696
1544.6400, -12.686
1544.6500, -12.673
1544.6600, -12.663
1544.6700, -12.661
1544.6800, -12.670
1544.6900, -12.683
1544.7000, -12.697
1544.7100, -12.707
1544.7200, -12.712
1544.7300, -12.717
1544.7400, -12.727
1544.7500, -12.735
1544.7600, -12.737
1544.7700, -12.731
1544.7800, -12.715
1544.7900, -12.701
1544.8000, -12.694
1544.8100, -12.693
1544.8200, -12.691
1544.8300, -12.690
1544.8400, -12.688
1544.8500, -12.693
1544.8600, -12.708
1544.8700, -12.726
1544.8800, -12.747
1544.8900, -12.761
1544.9000, -12.766
1544.9100, -12.770
1544.9200, -12.774
1544.9300, -12.778
1544.9400, -12.776
1544.9500, -12.762
1544.9600, -12.740
1544.9700, -12.719
1544.9800, -12.699
1544.9900, -12.689
1545.0000, -12.684
1545.0100, -12.677
1545.0200, -12.670
1545.0300, -12.670
1545.0400, -12.679
1545.0500, -12.701
1545.0600, -12.727
1545.0700, -12.746
1545.0800, -12.762
1545.0900, -12.772
1545.1000, -12.780
1545.1100, -12.790
1545.1200, -12.796
1545.1300, -12.791
1545.1400, -12.778
1545.1500, -12.755
1545.1600, -12.737
1545.1700, -12.727
1545.1800, -12.719
1545.1900, -12.709
1545.2000, -12.697
1545.2100, -12.689
1545.2200, -12.687
1545.2300, -12.696
1545.2400, -12.709
1545.2500, -12.721
1545.2600, -12.727
1545.2700, -12.728
1545.2800, -12.728
1545.2900, -12.731
1545.3000, -12.734
1545.3100, -12.732
1545.3200, -12.719
1545.3300, -12.700
1545.3400, -12.687
1545.3500, -12.677
1545.3600, -12.676
1545.3700, -12.677
1545.3800, -12.676
1545.3900, -12.674
1545.4000, -12.676
1545.4100, -12.686
1545.4200, -12.703
1545.4300, -12.723
1545.4400, -12.734
1545.4500, -12.735
1545.4600, -12.732
1545.4700, -12.727
1545.4800, -12.722
1545.4900, -12.711
1545.5000, -12.692
1545.5100, -12.667
1545.5200, -12.640
1545.5300, -12.611
1545.5400, -12.594
1545.5500, -12.585
1545.5600, -12.576
1545.5700, -12.567
1545.5800, -12.564
1545.5900, -12.568
1545.6000, -12.582
1545.6100, -12.598
1545.6200, -12.617
1545.6300, -12.630
1545.6400, -12.636
1545.6500, -12.638
1545.6600, -12.643
1545.6700, -12.644
1545.6800, -12.640
1545.6900, -12.624
1545.7000, -12.600
1545.7100, -12.580
1545.7200, -12.563
1545.7300, -12.552
1545.7400, -12.544
1545.7500, -12.535
1545.7600, -12.524
1545.7700, -12.517
1545.7800, -12.519
1545.7900, -12.530
1545.8000, -12.539
1545.8100, -12.539
1545.8200, -12.533
1545.8300, -12.523
1545.8400, -12.514
1545.8500, -12.509
1545.8600, -12.500
1545.8700, -12.483
1545.8800, -12.462
1545.8900, -12.436
1545.9000, -12.419
1545.9100, -12.413
1545.9200, -12.411
1545.9300, -12.411
1545.9400, -12.410
1545.9500, -12.411
1545.9600, -12.420
1545.9700, -12.437
1545.9800, -12.452
1545.9900, -12.465
1546.0000, -12.467
1546.0100, -12.460
1546.0200, -12.451
1546.0300, -12.442
1546.0400, -12.432
1546.0500, -12.415
1546.0600, -12.386
1546.0700, -12.356
1546.0800, -12.332
1546.0900, -12.314
1546.1000, -12.304
1546.1100, -12.299
1546.1200, -12.292
1546.1300, -12.287
1546.1400, -12.290
1546.1500, -12.300
1546.1600, -12.319
1546.1700, -12.336
1546.1800, -12.342
1546.1900, -12.340
1546.2000, -12.336
1546.2100, -12.332
1546.2200, -12.328
1546.2300, -12.320
1546.2400, -12.304
1546.2500, -12.282
1546.2600, -12.256
1546.2700, -12.239
1546.2800, -12.233
1546.2900, -12.229
1546.3000, -12.226
1546.3100, -12.221
1546.3200, -12.218
1546.3300, -12.221
1546.3400, -12.231
1546.3500, -12.242
1546.3600, -12.247
1546.3700, -12.242
1546.3800, -12.233
1546.3900, -12.223
1546.4000, -12.215
1546.4100, -12.206
1546.4200, -12.189
1546.4300, -12.167
1546.4400, -12.149
1546.4500, -12.134
1546.4600, -12.130
1546.4700, -12.133
1546.4800, -12.137
1546.4900, -12.139
1546.5000, -12.143
1546.5100, -12.151
1546.5200, -12.168
1546.5300, -12.185
1546.5400, -12.195
1546.5500, -12.195
1546.5600, -12.183
1546.5700, -12.169
1546.5800, -12.158
1546.5900, -12.142
1546.6000, -12.123
1546.6100, -12.099
1546.6200, -12.068
1546.6300, -12.044
1546.6400, -12.031
1546.6500, -12.026
1546.6600, -12.025
1546.6700, -12.025
1546.6800, -12.024
1546.6900, -12.028
1546.7000, -12.040
1546.7100, -12.056
1546.7200, -12.074
1546.7300, -12.085
1546.7400, -12.086
1546.7500, -12.082
1546.7600, -12.076
1546.7700, -12.071
1546.7800, -12.064
1546.7900, -12.048
1546.8000, -12.026
1546.8100, -12.006
1546.8200, -11.991
1546.8300, -11.982
1546.8400, -11.980
1546.8500, -11.978
1546.8600, -11.972
1546.8700, -11.968
1546.8800, -11.969
1546.8900, -11.975
1546.9000, -11.984
1546.9100, -11.987
1546.9200, -11.981
1546.9300, -11.967
1546.9400, -11.951
1546.9500, -11.940
1546.9600, -11.928
1546.9700, -11.913
1546.9800, -11.893
1546.9900, -11.874
1547.0000, -11.857
1547.0100, -11.851
1547.0200, -11.856
1547.0300, -11.866
1547.0400, -11.874
1547.0500, -11.880
1547.0600, -11.885
1547.0700, -11.899
1547.0800, -11.915
1547.0900, -11.927
1547.1000, -11.930
1547.1100, -11.921
1547.1200, -11.905
1547.1300, -11.889
1547.1400, -11.872
1547.1500, -11.855
1547.1600, -11.834
1547.1700, -11.803
1547.1800, -11.774
1547.1900, -11.756
1547.2000, -11.747
1547.2100, -11.745
1547.2200, -11.746
1547.2300, -11.746
1547.2400, -11.748
1547.2500, -11.757
1547.2600, -11.768
1547.2700, -11.785
1547.2800, -11.793
1547.2900, -11.791
1547.3000, -11.783
1547.3100, -11.772
1547.3200, -11.765
1547.3300, -11.759
1547.3400, -11.746
1547.3500, -11.727
1547.3600, -11.706
1547.3700, -11.690
1547.3800, -11.682
1547.3900, -11.682
1547.4000, -11.685
1547.4100, -11.686
1547.4200, -11.683
1547.4300, -11.683
1547.4400, -11.688
1547.4500, -11.695
1547.4600, -11.697
1547.4700, -11.691
1547.4800, -11.675
1547.4900, -11.655
1547.5000, -11.640
1547.5100, -11.625
1547.5200, -11.612
1547.5300, -11.598
1547.5400, -11.578
1547.5500, -11.562
1547.5600, -11.555
1547.5700, -11.557
1547.5800, -11.568
1547.5900, -11.577
1547.6000, -11.584
1547.6100, -11.592
1547.6200, -11.603
1547.6300, -11.615
1547.6400, -11.627
1547.6500, -11.629
1547.6600, -11.620
1547.6700, -11.601
1547.6800, -11.582
1547.6900, -11.565
1547.7000, -11.547
1547.7100, -11.525
1547.7200, -11.504
1547.7300, -11.480
1547.7400, -11.461
1547.7500, -11.454
1547.7600, -11.457
1547.7700, -11.463
1547.7800, -11.467
1547.7900, -11.470
1547.8000, -11.478
1547.8100, -11.490
1547.8200, -11.503
1547.8300, -11.514
1547.8400, -11.514
1547.8500, -11.506
1547.8600, -11.492
1547.8700, -11.481
1547.8800, -11.473
1547.8900, -11.462
1547.9000, -11.446
1547.9100, -11.426
1547.9200, -11.413
1547.9300, -11.406
1547.9400, -11.406
1547.9500, -11.411
1547.9600, -11.414
1547.9700, -11.413
1547.9800, -11.413
1547.9900, -11.415
1548.0000, -11.421
1548.0100, -11.423
1548.0200, -11.418
1548.0300, -11.402
1548.0400, -11.382
1548.0500, -11.368
1548.0600, -11.353
1548.0700, -11.340
1548.0800, -11.327
1548.0900, -11.309
1548.1000, -11.296
1548.1100, -11.292
1548.1200, -11.300
1548.1300, -11.314
1548.1400, -11.326
1548.1500, -11.335
1548.1600, -11.342
1548.1700, -11.349
1548.1800, -11.360
1548.1900, -11.371
1548.2000, -11.374
1548.2100, -11.367
1548.2200, -11.347
1548.2300, -11.325
1548.2400, -11.308
1548.2500, -11.291
1548.2600, -11.273
1548.2700, -11.255
1548.2800, -11.231
1548.2900, -11.213
1548.3000, -11.207
1548.3100, -11.211
1548.3200, -11.217
1548.3300, -11.223
1548.3400, -11.226
1548.3500, -11.231
1548.3600, -11.239
1548.3700, -11.247
1548.3800, -11.255
1548.3900, -11.254
1548.4000, -11.245
1548.4100, -11.230
1548.4200, -11.216
1548.4300, -11.207
1548.4400, -11.195
1548.4500, -11.183
1548.4600, -11.168
1548.4700, -11.153
1548.4800, -11.145
1548.4900, -11.147
1548.5000, -11.154
1548.5100, -11.162
1548.5200, -11.165
1548.5300, -11.165
1548.5400, -11.165
1548.5500, -11.168
1548.5600, -11.170
1548.5700, -11.165
1548.5800, -11.151
1548.5900, -11.129
1548.6000, -11.104
1548.6100, -11.086
1548.6200, -11.075
1548.6300, -11.065
1548.6400, -11.050
1548.6500, -11.037
1548.6600, -11.029
1548.6700, -11.030
1548.6800, -11.042
1548.6900, -11.055
1548.7000, -11.069
1548.7100, -11.078
1548.7200, -11.083
1548.7300, -11.089
1548.7400, -11.097
1548.7500, -11.098
1548.7600, -11.090
1548.7700, -11.070
1548.7800, -11.047
1548.7900, -11.027
1548.8000, -11.009
1548.8100, -10.992
1548.8200, -10.977
1548.8300, -10.959
1548.8400, -10.941
1548.8500, -10.933
1548.8600, -10.936
1548.8700, -10.944
1548.8800, -10.952
1548.8900, -10.956
1548.9000, -10.959
1548.9100, -10.964
1548.9200, -10.971
1548.9300, -10.978
1548.9400, -10.979
1548.9500, -10.970
1548.9600, -10.955
1548.9700, -10.936
1548.9800, -10.924
1548.9900, -10.917
1549.0000, -10.910
1549.0100, -10.899
1549.0200, -10.889
1549.0300, -10.882
1549.0400, -10.884
1549.0500, -10.892
1549.0600, -10.902
1549.0700, -10.908
1549.0800, -10.908
1549.0900, -10.905
1549.1000, -10.904
1549.1100, -10.905
1549.1200, -10.901
1549.1300, -10.887
1549.1400, -10.865
1549.1500, -10.845
1549.1600, -10.825
1549.1700, -10.809
1549.1800, -10.799
1549.1900, -10.790
1549.2000, -10.779
1549.2100, -10.773
1549.2200, -10.775
1549.2300, -10.788
1549.2400, -10.804
1549.2500, -10.817
1549.2600, -10.826
1549.2700, -10.832
1549.2800, -10.838
1549.2900, -10.843
1549.3000, -10.848
1549.3100, -10.844
1549.3200, -10.830
1549.3300, -10.808
1549.3400, -10.785
1549.3500, -10.769
1549.3600, -10.755
1549.3700, -10.740
1549.3800, -10.724
1549.3900, -10.710
1549.4000, -10.701
1549.4100, -10.701
1549.4200, -10.707
1549.4300, -10.719
1549.4400, -10.725
1549.4500, -10.726
1549.4600, -10.724
1549.4700, -10.726
1549.4800, -10.728
1549.4900, -10.728
1549.5000, -10.721
1549.5100, -10.706
1549.5200, -10.689
1549.5300, -10.673
1549.5400, -10.662
1549.5500, -10.656
1549.5600, -10.648
1549.5700, -10.640
1549.5800, -10.633
1549.5900, -10.634
1549.6000, -10.643
1549.6100, -10.653
1549.6200, -10.662
1549.6300, -10.664
1549.6400, -10.660
1549.6500, -10.656
1549.6600, -10.651
1549.6700, -10.644
1549.6800, -10.635
1549.6900, -10.613
1549.7000, -10.587
1549.7100, -10.565
1549.7200, -10.544
1549.7300, -10.532
1549.7400, -10.524
1549.7500, -10.513
1549.7600, -10.504
1549.7700, -10.500
1549.7800, -10.504
1549.7900, -10.518
1549.8000, -10.536
1549.8100, -10.547
1549.8200, -10.553
1549.8300, -10.553
1549.8400, -10.553
1549.8500, -10.552
1549.8600, -10.548
1549.8700, -10.538
1549.8800, -10.514
1549.8900, -10.485
1549.9000, -10.463
1549.9100, -10.445
1549.9200, -10.433
1549.9300, -10.422
1549.9400, -10.410
1549.9500, -10.397
1549.9600, -10.389
1549.9700, -10.390
1549.9800, -10.399
1549.9900, -10.408
1550.0000, -10.412
1550.0100, -10.410
1550.0200, -10.407
1550.0300, -10.406
1550.0400, -10.404
1550.0500, -10.396
1550.0600, -10.384
1550.0700, -10.362
1550.0800, -10.345
1550.0900, -10.334
1550.1000, -10.328
1550.1100, -10.323
1550.1200, -10.318
1550.1300, -10.310
1550.1400, -10.305
1550.1500, -10.308
1550.1600, -10.316
1550.1700, -10.327
1550.1800, -10.331
1550.1900, -10.328
1550.2000, -10.318
1550.2100, -10.308
1550.2200, -10.300
1550.2300, -10.288
1550.2400, -10.271
1550.2500, -10.250
1550.2600, -10.226
1550.2700, -10.201
1550.2800, -10.187
1550.2900, -10.181
1550.3000, -10.176
1550.3100, -10.172
1550.3200, -10.169
1550.3300, -10.172
1550.3400, -10.184
1550.3500, -10.198
1550.3600, -10.215
1550.3700, -10.223
1550.3800, -10.225
1550.3900, -10.224
1550.4000, -10.223
1550.4100, -10.219
1550.4200, -10.210
1550.4300, -10.192
1550.4400, -10.166
1550.4500, -10.146
1550.4600, -10.127
1550.4700, -10.115
1550.4800, -10.107
1550.4900, -10.097
1550.5000, -10.087
1550.5100, -10.082
1550.5200, -10.084
1550.5300, -10.093
1550.5400, -10.101
1550.5500, -10.105
1550.5600, -10.102
1550.5700, -10.097
1550.5800, -10.094
1550.5900, -10.091
1550.6000, -10.088
1550.6100, -10.078
1550.6200, -10.061
1550.6300, -10.046
1550.6400, -10.031
1550.6500, -10.023
1550.6600, -10.021
1550.6700, -10.021
1550.6800, -10.021
1550.6900, -10.020
1550.7000, -10.023
1550.7100, -10.032
1550.7200, -10.044
1550.7300, -10.051
1550.7400, -10.051
1550.7500, -10.043
1550.7600, -10.033
1550.7700, -10.022
1550.7800, -10.011
1550.7900,  -9.998
1550.8000,  -9.977
1550.8100,  -9.953
1550.8200,  -9.934
1550.8300,  -9.920
1550.8400,  -9.913
1550.8500,  -9.911
1550.8600,  -9.908
1550.8700,  -9.906
1550.8800,  -9.909
1550.8900,  -9.919
1550.9000,  -9.936
1550.9100,  -9.949
1550.9200,  -9.956
1550.9300,  -9.956
1550.9400,  -9.951
1550.9500,  -9.945
1550.9600,  -9.939
1550.9700,  -9.930
1550.9800,  -9.918
1550.9900,  -9.895
1551.0000,  -9.872
1551.0100,  -9.855
1551.0200,  -9.842
1551.0300,  -9.836
1551.0400,  -9.831
1551.0500,  -9.824
1551.0600,  -9.818
1551.0700,  -9.816
1551.0800,  -9.823
1551.0900,  -9.831
1551.1000,  -9.839
1551.1100,  -9.841
1551.1200,  -9.837
1551.1300,  -9.830
1551.1400,  -9.822
1551.1500,  -9.816
1551.1600,  -9.809
1551.1700,  -9.795
1551.1800,  -9.779
1551.1900,  -9.765
1551.2000,  -9.755
1551.2100,  -9.752
1551.2200,  -9.752
1551.2300,  -9.753
1551.2400,  -9.752
1551.2500,  -9.752
1551.2600,  -9.755
1551.2700,  -9.764
1551.2800,  -9.774
1551.2900,  -9.778
1551.3000,  -9.773
1551.3100,  -9.762
1551.3200,  -9.751
1551.3300,  -9.738
1551.3400,  -9.726
1551.3500,  -9.713
1551.3600,  -9.690
1551.3700,  -9.666
1551.3800,  -9.650
1551.3900,  -9.641
1551.4000,  -9.640
1551.4100,  -9.644
1551.4200,  -9.646
1551.4300,  -9.649
1551.4400,  -9.654
1551.4500,  -9.667
1551.4600,  -9.682
1551.4700,  -9.694
1551.4800,  -9.701
1551.4900,  -9.700
1551.5000,  -9.694
1551.5100,  -9.687
1551.5200,  -9.679
1551.5300,  -9.671
1551.5400,  -9.657
1551.5500,  -9.637
1551.5600,  -9.617
1551.5700,  -9.605
1551.5800,  -9.600
1551.5900,  -9.599
1551.6000,  -9.599
1551.6100,  -9.598
1551.6200,  -9.598
1551.6300,  -9.600
1551.6400,  -9.609
1551.6500,  -9.619
1551.6600,  -9.623
1551.6700,  -9.620
1551.6800,  -9.614
1551.6900,  -9.606
1551.7000,  -9.600
1551.7100,  -9.595
1551.7200,  -9.587
1551.7300,  -9.576
1551.7400,  -9.560
1551.7500,  -9.550
1551.7600,  -9.549
1551.7700,  -9.555
1551.7800,  -9.565
1551.7900,  -9.571
1551.8000,  -9.576
1551.8100,  -9.582
1551.8200,  -9.590
1551.8300,  -9.603
1551.8400,  -9.612
1551.8500,  -9.612
1551.8600,  -9.605
1551.8700,  -9.591
1551.8800,  -9.578
1551.8900,  -9.568
1551.9000,  -9.557
1551.9100,  -9.543
1551.9200,  -9.527
1551.9300,  -9.508
1551.9400,  -9.496
1551.9500,  -9.494
1551.9600,  -9.498
1551.9700,  -9.504
1551.9800,  -9.508
1551.9900,  -9.515
1552.0000,  -9.526
1552.0100,  -9.537
1552.0200,  -9.551
1552.0300,  -9.561
1552.0400,  -9.561
1552.0500,  -9.556
1552.0600,  -9.547
1552.0700,  -9.540
1552.0800,  -9.535
1552.0900,  -9.524
1552.1000,  -9.509
1552.1100,  -9.493
1552.1200,  -9.479
1552.1300,  -9.471
1552.1400,  -9.472
1552.1500,  -9.475
1552.1600,  -9.477
1552.1700,  -9.477
1552.1800,  -9.479
1552.1900,  -9.485
1552.2000,  -9.493
1552.2100,  -9.498
1552.2200,  -9.497
1552.2300,  -9.487
1552.2400,  -9.475
1552.2500,  -9.463
1552.2600,  -9.454
1552.2700,  -9.448
1552.2800,  -9.438
1552.2900,  -9.426
1552.3000,  -9.416
1552.3100,  -9.410
1552.3200,  -9.411
1552.3300,  -9.419
1552.3400,  -9.425
1552.3500,  -9.431
1552.3600,  -9.436
1552.3700,  -9.440
1552.3800,  -9.449
1552.3900,  -9.457
1552.4000,  -9.460
1552.4100,  -9.454
1552.4200,  -9.440
1552.4300,  -9.426
1552.4400,  -9.409
1552.4500,  -9.397
1552.4600,  -9.384
1552.4700,  -9.369
1552.4800,  -9.351
1552.4900,  -9.337
1552.5000,  -9.332
1552.5100,  -9.335
1552.5200,  -9.342
1552.5300,  -9.348
1552.5400,  -9.353
1552.5500,  -9.358
1552.5600,  -9.365
1552.5700,  -9.379
1552.5800,  -9.391
1552.5900,  -9.397
1552.6000,  -9.394
1552.6100,  -9.384
1552.6200,  -9.375
1552.6300,  -9.365
1552.6400,  -9.356
1552.6500,  -9.349
1552.6600,  -9.334
1552.6700,  -9.320
1552.6800,  -9.311
1552.6900,  -9.309
1552.7000,  -9.314
1552.7100,  -9.320
1552.7200,  -9.324
1552.7300,  -9.325
1552.7400,  -9.327
1552.7500,  -9.331
1552.7600,  -9.337
1552.7700,  -9.340
1552.7800,  -9.337
1552.7900,  -9.327
1552.8000,  -9.315
1552.8100,  -9.306
1552.8200,  -9.298
1552.8300,  -9.291
1552.8400,  -9.284
1552.8500,  -9.275
1552.8600,  -9.268
1552.8700,  -9.270
1552.8800,  -9.281
1552.8900,  -9.295
1552.9000,  -9.306
1552.9100,  -9.315
1552.9200,  -9.322
1552.9300,  -9.328
1552.9400,  -9.338
1552.9500,  -9.346
1552.9600,  -9.347
1552.9700,  -9.338
1552.9800,  -9.324
1552.9900,  -9.310
1553.0000,  -9.298
1553.0100,  -9.286
1553.0200,  -9.277
1553.0300,  -9.264
1553.0400,  -9.251
1553.0500,  -9.245
1553.0600,  -9.246
1553.0700,  -9.257
1553.0800,  -9.271
1553.0900,  -9.281
1553.1000,  -9.291
1553.1100,  -9.300
1553.1200,  -9.310
1553.1300,  -9.322
1553.1400,  -9.331
1553.1500,  -9.332
1553.1600,  -9.326
1553.1700,  -9.317
1553.1800,  -9.310
1553.1900,  -9.304
1553.2000,  -9.299
1553.2100,  -9.292
1553.2200,  -9.282
1553.2300,  -9.273
1553.2400,  -9.271
1553.2500,  -9.276
1553.2600,  -9.286
1553.2700,  -9.294
1553.2800,  -9.300
1553.2900,  -9.303
1553.3000,  -9.306
1553.3100,  -9.313
1553.3200,  -9.319
1553.3300,  -9.320
1553.3400,  -9.311
1553.3500,  -9.300
1553.3600,  -9.290
1553.3700,  -9.283
1553.3800,  -9.281
1553.3900,  -9.279
1553.4000,  -9.276
1553.4100,  -9.272
1553.4200,  -9.270
1553.4300,  -9.277
1553.4400,  -9.290
1553.4500,  -9.307
1553.4600,  -9.319
1553.4700,  -9.328
1553.4800,  -9.334
1553.4900,  -9.339
1553.5000,  -9.345
1553.5100,  -9.347
1553.5200,  -9.341
1553.5300,  -9.327
1553.5400,  -9.308
1553.5500,  -9.295
1553.5600,  -9.283
1553.5700,  -9.275
1553.5800,  -9.268
1553.5900,  -9.259
1553.6000,  -9.253
1553.6100,  -9.254
1553.6200,  -9.264
1553.6300,  -9.279
1553.6400,  -9.291
1553.6500,  -9.303
1553.6600,  -9.312
1553.6700,  -9.321
1553.6800,  -9.334
1553.6900,  -9.345
1553.7000,  -9.349
1553.7100,  -9.345
1553.7200,  -9.335
1553.7300,  -9.326
1553.7400,  -9.318
1553.7500,  -9.313
1553.7600,  -9.311
1553.7700,  -9.306
1553.7800,  -9.300
1553.7900,  -9.297
1553.8000,  -9.300
1553.8100,  -9.310
1553.8200,  -9.321
1553.8300,  -9.331
1553.8400,  -9.335
1553.8500,  -9.336
1553.8600,  -9.339
1553.8700,  -9.344
1553.8800,  -9.348
1553.8900,  -9.347
1553.9000,  -9.339
1553.9100,  -9.328
1553.9200,  -9.316
1553.9300,  -9.311
1553.9400,  -9.310
1553.9500,  -9.312
1553.9600,  -9.314
1553.9700,  -9.316
1553.9800,  -9.325
1553.9900,  -9.339
1554.0000,  -9.358
1554.0100,  -9.377
1554.0200,  -9.392
1554.0300,  -9.400
1554.0400,  -9.409
1554.0500,  -9.417
1554.0600,  -9.424
1554.0700,  -9.427
1554.0800,  -9.422
1554.0900,  -9.412
1554.1000,  -9.397
1554.1100,  -9.385
1554.1200,  -9.381
1554.1300,  -9.377
1554.1400,  -9.374
1554.1500,  -9.371
1554.1600,  -9.370
1554.1700,  -9.377
1554.1800,  -9.390
1554.1900,  -9.411
1554.2000,  -9.430
1554.2100,  -9.441
1554.2200,  -9.451
1554.2300,  -9.460
1554.2400,  -9.470
1554.2500,  -9.480
1554.2600,  -9.486
1554.2700,  -9.484
1554.2800,  -9.477
1554.2900,  -9.471
1554.3000,  -9.469
1554.3100,  -9.471
1554.3200,  -9.474
1554.3300,  -9.476
1554.3400,  -9.479
1554.3500,  -9.485
1554.3600,  -9.496
1554.3700,  -9.516
1554.3800,  -9.534
1554.3900,  -9.547
1554.4000,  -9.556
1554.4100,  -9.562
1554.4200,  -9.567
1554.4300,  -9.573
1554.4400,  -9.577
1554.4500,  -9.574
1554.4600,  -9.564
1554.4700,  -9.556
1554.4800,  -9.552
1554.4900,  -9.553
1554.5000,  -9.559
1554.5100,  -9.564
1554.5200,  -9.569
1554.5300,  -9.576
1554.5400,  -9.587
1554.5500,  -9.609
1554.5600,  -9.633
1554.5700,  -9.653
1554.5800,  -9.668
1554.5900,  -9.677
1554.6000,  -9.683
1554.6100,  -9.689
1554.6200,  -9.696
1554.6300,  -9.698
1554.6400,  -9.693
1554.6500,  -9.681
1554.6600,  -9.670
1554.6700,  -9.666
1554.6800,  -9.667
1554.6900,  -9.671
1554.7000,  -9.675
1554.7100,  -9.679
1554.7200,  -9.686
1554.7300,  -9.698
1554.7400,  -9.718
1554.7500,  -9.741
1554.7600,  -9.756
1554.7700,  -9.771
1554.7800,  -9.781
1554.7900,  -9.789
1554.8000,  -9.799
1554.8100,  -9.806
1554.8200,  -9.805
1554.8300,  -9.798
1554.8400,  -9.788
1554.8500,  -9.782
1554.8600,  -9.781
1554.8700,  -9.784
1554.8800,  -9.789
1554.8900,  -9.792
1554.9000,  -9.795
1554.9100,  -9.801
1554.9200,  -9.813
1554.9300,  -9.830
1554.9400,  -9.845
1554.9500,  -9.853
1554.9600,  -9.857
1554.9700,  -9.859
1554.9800,  -9.860
1554.9900,  -9.863
1555.0000,  -9.863
1555.0100,  -9.857
1555.0200,  -9.844
1555.0300,  -9.832
1555.0400,  -9.826
1555.0500,  -9.828
1555.0600,  -9.835
1555.0700,  -9.842
1555.0800,  -9.851
1555.0900,  -9.860
1555.1000,  -9.872
1555.1100,  -9.891
1555.1200,  -9.913
1555.1300,  -9.928
1555.1400,  -9.940
1555.1500,  -9.945
1555.1600,  -9.948
1555.1700,  -9.950
1555.1800,  -9.951
1555.1900,  -9.948
1555.2000,  -9.939
1555.2100,  -9.924
1555.2200,  -9.911
1555.2300,  -9.904
1555.2400,  -9.903
1555.2500,  -9.907
1555.2600,  -9.911
1555.2700,  -9.918
1555.2800,  -9.928
1555.2900,  -9.944
1555.3000,  -9.971
1555.3100,  -9.998
1555.3200, -10.020
1555.3300, -10.039
1555.3400, -10.054
1555.3500, -10.068
1555.3600, -10.090
1555.3700, -10.112
1555.3800, -10.130
1555.3900, -10.146
1555.4000, -10.159
1555.4100, -10.174
1555.4200, -10.202
1555.4300, -10.238
1555.4400, -10.271
1555.4500, -10.316
1555.4600, -10.357
1555.4700, -10.400
1555.4800, -10.451
1555.4900, -10.520
1555.5000, -10.586
1555.5100, -10.643
1555.5200, -10.707
1555.5300, -10.764
1555.5400, -10.820
1555.5500, -10.890
1555.5600, -10.965
1555.5700, -11.025
1555.5800, -11.104
1555.5900, -11.180
1555.6000, -11.257
1555.6100, -11.359
1555.6200, -11.469
1555.6300, -11.572
1555.6400, -11.699
1555.6500, -11.831
1555.6600, -11.947
1555.6700, -12.110
1555.6800, -12.264
1555.6900, -12.408
1555.7000, -12.568
1555.7100, -12.726
1555.7200, -12.856
1555.7300, -13.027
1555.7400, -13.188
1555.7500, -13.328
1555.7600, -13.501
1555.7700, -13.657
1555.7800, -13.799
1555.7900, -13.982
1555.8000, -14.167
1555.8100, -14.327
1555.8200, -14.539
1555.8300, -14.733
1555.8400, -14.906
1555.8500, -15.127
1555.8600, -15.345
1555.8700, -15.545
1555.8800, -15.773
1555.8900, -16.000
1555.9000, -16.173
1555.9100, -16.405
1555.9200, -16.609
1555.9300, -16.806
1555.9400, -17.027
1555.9500, -17.243
1555.9600, -17.422
1555.9700, -17.652
1555.9800, -17.869
1555.9900, -18.065
1556.0000, -18.315
1556.0100, -18.545
1556.0200, -18.743
1556.0300, -18.985
1556.0400, -19.228
1556.0500, -19.431
1556.0600, -19.676
1556.0700, -19.908
1556.0800, -20.099
1556.0900, -20.335
1556.1000, -20.552
1556.1100, -20.740
1556.1200, -20.961
1556.1300, -21.175
1556.1400, -21.344
1556.1500, -21.571
1556.1600, -21.767
1556.1700, -21.963
1556.1800, -22.200
1556.1900, -22.431
1556.2000, -22.623
1556.2100, -22.875
1556.2200, -23.125
1556.2300, -23.280
1556.2400, -23.523
1556.2500, -23.743
1556.2600, -23.947
1556.2700, -24.164
1556.2800, -24.371
1556.2900, -24.547
1556.3000, -24.764
1556.3100, -24.968
1556.3200, -25.135
1556.3300, -25.336
1556.3400, -25.518
1556.3500, -25.690
1556.3600, -25.890
1556.3700, -26.096
1556.3800, -26.264
1556.3900, -26.478
1556.4000, -26.669
1556.4100, -26.846
1556.4200, -27.058
1556.4300, -27.262
1556.4400, -27.434
1556.4500, -27.640
1556.4600, -27.835
1556.4700, -27.988
1556.4800, -28.188
1556.4900, -28.367
1556.5000, -28.529
1556.5100, -28.710
1556.5200, -28.875
1556.5300, -29.028
1556.5400, -29.204
1556.5500, -29.385
1556.5600, -29.539
1556.5700, -29.730
1556.5800, -29.904
1556.5900, -30.053
1556.6000, -30.233
1556.6100, -30.415
1556.6200, -30.563
1556.6300, -30.748
1556.6400, -30.916
1556.6500, -31.070
1556.6600, -31.222
1556.6700, -31.353
1556.6800, -31.515
1556.6900, -31.659
1556.7000, -31.789
1556.7100, -31.927
1556.7200, -32.068
1556.7300, -32.188
1556.7400, -32.343
1556.7500, -32.489
1556.7600, -32.623
1556.7700, -32.866
1556.7800, -32.935
1556.7900, -33.069
1556.8000, -33.229
1556.8100, -33.385
1556.8200, -33.494
1556.8300, -33.650
1556.8400, -33.777
1556.8500, -33.891
1556.8600, -34.024
1556.8700, -34.149
1556.8800, -34.258
1556.8900, -34.379
1556.9000, -34.489
1556.9100, -34.577
1556.9200, -34.697
1556.9300, -34.809
1556.9400, -34.907
1556.9500, -35.024
1556.9600, -35.139
1556.9700, -35.240
1556.9800, -35.357
1556.9900, -35.477
1557.0000, -35.581
1557.0100, -35.698
1557.0200, -35.799
1557.0300, -35.901
1557.0400, -35.993
1557.0500, -36.074
1557.0600, -36.178
1557.0700, -36.266
1557.0800, -36.343
1557.0900, -36.423
1557.1000, -36.498
1557.1100, -36.562
1557.1200, -36.656
1557.1300, -36.740
1557.1400, -36.813
1557.1500, -36.906
1557.1600, -36.986
1557.1700, -37.056
1557.1800, -37.149
1557.1900, -37.226
1557.2000, -37.300
1557.2100, -37.367
1557.2200, -37.434
1557.2300, -37.490
1557.2400, -37.559
1557.2500, -37.618
1557.2600, -37.665
1557.2700, -37.726
1557.2800, -37.768
1557.2900, -37.819
1557.3000, -37.873
1557.3100, -37.933
1557.3200, -37.974
1557.3300, -38.031
1557.3400, -38.094
1557.3500, -38.140
1557.3600, -38.197
1557.3700, -38.262
1557.3800, -38.316
1557.3900, -38.374
1557.4000, -38.421
1557.4100, -38.470
1557.4200, -38.508
1557.4300, -38.550
1557.4400, -38.593
1557.4500, -38.629
1557.4600, -38.667
1557.4700, -38.701
1557.4800, -38.728
1557.4900, -38.757
1557.5000, -38.803
1557.5100, -38.837
1557.5200, -38.873
1557.5300, -38.908
1557.5400, -38.953
1557.5500, -38.985
1557.5600, -39.026
1557.5700, -39.063
1557.5800, -39.100
1557.5900, -39.126
1557.6000, -39.167
1557.6100, -39.178
1557.6200, -39.227
1557.6300, -39.249
1557.6400, -39.265
1557.6500, -39.294
1557.6600, -39.309
1557.6700, -39.330
1557.6800, -39.364
1557.6900, -39.380
1557.7000, -39.412
1557.7100, -39.457
1557.7200, -39.480
1557.7300, -39.507
1557.7400, -39.533
1557.7500, -39.557
1557.7600, -39.599
1557.7700, -39.628
1557.7800, -39.634
1557.7900, -39.671
1557.8000, -39.682
1557.8100, -39.719
1557.8200, -39.738
1557.8300, -39.747
1557.8400, -39.767
1557.8500, -39.790
1557.8600, -39.809
1557.8700, -39.807
1557.8800, -39.841
1557.8900, -39.872
1557.9000, -39.871
1557.9100, -39.894
1557.9200, -39.908
1557.9300, -39.948
1557.9400, -39.965
1557.9500, -39.975
1557.9600, -40.009
1557.9700, -40.030
1557.9800, -40.053
1557.9900, -40.064
1558.0000, -40.097
1558.0100, -40.116
1558.0200, -40.127
1558.0300, -40.144
1558.0400, -40.157
1558.0500, -40.174
1558.0600, -40.191
1558.0700, -40.219
1558.0800, -40.244
1558.0900, -40.250
1558.1000, -40.259
1558.1100, -40.288
1558.1200, -40.301
1558.1300, -40.329
1558.1400, -40.361
1558.1500, -40.375
1558.1600, -40.387
1558.1700, -40.391
1558.1800, -40.404
1558.1900, -40.432
1558.2000, -40.452
1558.2100, -40.463
1558.2200, -40.476
1558.2300, -40.512
1558.2400, -40.528
1558.2500, -40.543
1558.2600, -40.560
1558.2700, -40.580
1558.2800, -40.590
1558.2900, -40.608
1558.3000, -40.642
1558.3100, -40.658
1558.3200, -40.670
1558.3300, -40.702
1558.3400, -40.709
1558.3500, -40.721
1558.3600, -40.742
1558.3700, -40.771
1558.3800, -40.785
1558.3900, -40.793
1558.4000, -40.816
1558.4100, -40.821
1558.4200, -40.848
1558.4300, -40.856
1558.4400, -40.869
1558.4500, -40.894
1558.4600, -40.914
1558.4700, -40.940
1558.4800, -40.945
1558.4900, -40.971
1558.5000, -40.996
1558.5100, -41.019
1558.5200, -41.037
1558.5300, -41.059
1558.5400, -41.074
1558.5500, -41.099
1558.5600, -41.126
1558.5700, -41.121
1558.5800, -41.145
1558.5900, -41.159
1558.6000, -41.179
1558.6100, -41.195
1558.6200, -41.220
1558.6300, -41.226
1558.6400, -41.258
1558.6500, -41.277
1558.6600, -41.313
1558.6700, -41.325
1558.6800, -41.322
1558.6900, -41.356
1558.7000, -41.365
1558.7100, -41.396
1558.7200, -41.413
1558.7300, -41.433
1558.7400, -41.448
1558.7500, -41.472
1558.7600, -41.505
1558.7700, -41.515
1558.7800, -41.533
1558.7900, -41.560
1558.8000, -41.578
1558.8100, -41.572
1558.8200, -41.605
1558.8300, -41.634
1558.8400, -41.644
1558.8500, -41.670
1558.8600, -41.682
1558.8700, -41.699
1558.8800, -41.732
1558.8900, -41.760
1558.9000, -41.785
1558.9100, -41.789
1558.9200, -41.824
1558.9300, -41.821
1558.9400, -41.851
1558.9500, -41.877
1558.9600, -41.888
1558.9700, -41.907
1558.9800, -41.920
1558.9900, -41.947
1559.0000, -41.951
1559.0100, -41.986
1559.0200, -42.030
1559.0300, -42.045
1559.0400, -42.055
1559.0500, -42.087
1559.0600, -42.100
1559.0700, -42.137
1559.0800, -42.161
1559.0900, -42.163
1559.1000, -42.184
1559.1100, -42.226
1559.1200, -42.251
1559.1300, -42.261
1559.1400, -42.287
1559.1500, -42.323
1559.1600, -42.335
1559.1700, -42.331
1559.1800, -42.365
1559.1900, -42.398
1559.2000, -42.430
1559.2100, -42.447
1559.2200, -42.456
1559.2300, -42.489
1559.2400, -42.508
1559.2500, -42.531
1559.2600, -42.548
1559.2700, -42.583
1559.2800, -42.600
1559.2900, -42.641
1559.3000, -42.629
1559.3100, -42.662
1559.3200, -42.708
1559.3300, -42.711
1559.3400, -42.729
1559.3500, -42.767
1559.3600, -42.788
1559.3700, -42.793
1559.3800, -42.828
1559.3900, -42.844
1559.4000, -42.868
1559.4100, -42.901
1559.4200, -42.901
1559.4300, -42.961
1559.4400, -42.975
1559.4500, -43.004
1559.4600, -43.044
1559.4700, -43.067
1559.4800, -43.066
1559.4900, -43.114
1559.5000, -43.143
1559.5100, -43.140
1559.5200, -43.179
1559.5300, -43.184
1559.5400, -43.244
1559.5500, -43.260
1559.5600, -43.283
1559.5700, -43.336
1559.5800, -43.341
1559.5900, -43.350
1559.6000, -43.370
1559.6100, -43.409
1559.6200, -43.436
1559.6300, -43.467
1559.6400, -43.488
1559.6500, -43.483
1559.6600, -43.526
1559.6700, -43.555
1559.6800, -43.602
1559.6900, -43.624
1559.7000, -43.668
1559.7100, -43.662
1559.7200, -43.728
1559.7300, -43.718
1559.7400, -43.735
1559.7500, -43.778
1559.7600, -43.802
1559.7700, -43.810
1559.7800, -43.843
1559.7900, -43.894
1559.8000, -43.908
1559.8100, -43.952
1559.8200, -43.988
1559.8300, -44.003
1559.8400, -44.020
1559.8500, -44.025
1559.8600, -44.112
1559.8700, -44.107
1559.8800, -44.127
1559.8900, -44.167
1559.9000, -44.219
1559.9100, -44.230
1559.9200, -44.249
1559.9300, -44.289
1559.9400, -44.324
1559.9500, -44.353
1559.9600, -44.348
1559.9700, -44.427
1559.9800, -44.444
1559.9900, -44.464
1560.0000, -44.490
1560.0100, -44.519
1560.0200, -44.546
1560.0300, -44.547
1560.0400, -44.642
1560.0500, -44.641
1560.0600, -44.665
1560.0700, -44.692
1560.0800, -44.710
1560.0900, -44.740
1560.1000, -44.807
1560.1100, -44.813
1560.1200, -44.851
1560.1300, -44.904
1560.1400, -44.900
1560.1500, -44.926
1560.1600, -44.995
1560.1700, -45.001
1560.1800, -45.016
1560.1900, -45.064
1560.2000, -45.093
1560.2100, -45.096
1560.2200, -45.155
1560.2300, -45.186
1560.2400, -45.194
1560.2500, -45.234
1560.2600, -45.270
1560.2700, -45.302
1560.2800, -45.364
1560.2900, -45.390
1560.3000, -45.395
1560.3100, -45.477
1560.3200, -45.466
1560.3300, -45.490
1560.3400, -45.512
1560.3500, -45.523
1560.3600, -45.597
1560.3700, -45.661
1560.3800, -45.718
1560.3900, -45.732
1560.4000, -45.801
1560.4100, -45.784
1560.4200, -45.778
1560.4300, -45.861
1560.4400, -45.843
1560.4500, -45.868
1560.4600, -45.968
1560.4700, -46.012
1560.4800, -46.014
1560.4900, -46.048
1560.5000, -46.093
1560.5100, -46.111
1560.5200, -46.150
1560.5300, -46.155
1560.5400, -46.172
1560.5500, -46.216
1560.5600, -46.270
1560.5700, -46.328
1560.5800, -46.347
1560.5900, -46.375
1560.6000, -46.439
1560.6100, -46.440
1560.6200, -46.529
1560.6300, -46.562
1560.6400, -46.616
1560.6500, -46.640
1560.6600, -46.670
1560.6700, -46.650
1560.6800, -46.667
1560.6900, -46.721
1560.7000, -46.712
1560.7100, -46.770
1560.7200, -46.863
1560.7300, -46.889
1560.7400, -46.921
1560.7500, -47.017
1560.7600, -47.011
1560.7700, -47.024
1560.7800, -47.073
1560.7900, -47.115
1560.8000, -47.184
1560.8100, -47.217
1560.8200, -47.223
1560.8300, -47.246
1560.8400, -47.339
1560.8500, -47.375
1560.8600, -47.367
1560.8700, -47.409
1560.8800, -47.454
1560.8900, -47.460
1560.9000, -47.499
1560.9100, -47.557
1560.9200, -47.675
1560.9300, -47.681
1560.9400, -47.706
1560.9500, -47.772
1560.9600, -47.764
1560.9700, -47.830
1560.9800, -47.843
1560.9900, -47.900
1561.0000, -47.993
1561.0100, -47.971
1561.0200, -47.993
1561.0300, -48.049
1561.0400, -48.123
1561.0500, -48.138
1561.0600, -48.102
1561.0700, -48.192
1561.0800, -48.183
1561.0900, -48.322
1561.1000, -48.339
1561.1100, -48.401
1561.1200, -48.482
1561.1300, -48.406
1561.1400, -48.511
1561.1500, -48.607
1561.1600, -48.580
1561.1700, -48.519
1561.1800, -48.640
1561.1900, -48.756
1561.2000, -48.810
1561.2100, -48.772
1561.2200, -48.793
1561.2300, -48.919
1561.2400, -48.966
1561.2500, -48.983
1561.2600, -49.066
1561.2700, -49.086
1561.2800, -49.066
1561.2900, -49.142
1561.3000, -49.239
1561.3100, -49.296
1561.3200, -49.281
1561.3300, -49.301
1561.3400, -49.256
1561.3500, -49.436
1561.3600, -49.425
1561.3700, -49.564
1561.3800, -49.565
1561.3900, -49.626
1561.4000, -49.599
1561.4100, -49.709
1561.4200, -49.714
1561.4300, -49.716
1561.4400, -49.747
1561.4500, -49.869
1561.4600, -49.949
1561.4700, -49.880
1561.4800, -50.142
1561.4900, -49.990
1561.5000, -50.238
1561.5100, -50.168
1561.5200, -50.239
1561.5300, -50.329
1561.5400, -50.290
1561.5500, -50.419
1561.5600, -50.406
1561.5700, -50.333
1561.5800, -50.532
1561.5900, -50.637
1561.6000, -50.686
1561.6100, -50.735
1561.6200, -50.710
1561.6300, -50.862
1561.6400, -50.813
1561.6500, -50.959
1561.6600, -50.981
1561.6700, -50.948
1561.6800, -50.866
1561.6900, -50.989
1561.7000, -51.173
1561.7100, -51.096
1561.7200, -51.215
1561.7300, -51.411
1561.7400, -51.406
1561.7500, -51.429
1561.7600, -51.437
1561.7700, -51.485
1561.7800, -51.417
1561.7900, -51.419
1561.8000, -51.526
1561.8100, -51.779
1561.8200, -51.712
1561.8300, -51.722
1561.8400, -51.780
1561.8500, -51.926
1561.8600, -52.070
1561.8700, -51.907
1561.8800, -52.081
1561.8900, -52.122
1561.9000, -52.096
1561.9100, -52.200
1561.9200, -52.350
1561.9300, -52.321
1561.9400, -52.361
1561.9500, -52.428
1561.9600, -52.295
1561.9700, -52.628
1561.9800, -52.577
1561.9900, -52.689
1562.0000, -52.730
1562.0100, -52.948
1562.0200, -52.856
1562.0300, -52.929
1562.0400, -52.915
1562.0500, -53.175
1562.0600, -53.092
1562.0700, -53.258
1562.0800, -53.405
1562.0900, -53.231
1562.1000, -53.219
1562.1100, -53.591
1562.1200, -53.398
1562.1300, -53.555
1562.1400, -53.681
1562.1500, -53.695
1562.1600, -53.456
1562.1700, -53.703
1562.1800, -53.805
1562.1900, -54.020
1562.2000, -53.969
1562.2100, -53.986
1562.2200, -53.960
1562.2300, -54.365
1562.2400, -54.186
1562.2500, -54.440
1562.2600, -54.288
1562.2700, -54.541
1562.2800, -54.491
1562.2900, -54.638
1562.3000, -54.655
1562.3100, -54.606
1562.3200, -54.649
1562.3300, -54.842
1562.3400, -54.498
1562.3500, -55.012
1562.3600, -55.208
1562.3700, -54.954
1562.3800, -55.027
1562.3900, -55.710
1562.4000, -55.220
1562.4100, -55.274
1562.4200, -55.505
1562.4300, -55.279
1562.4400, -55.733
1562.4500, -55.737
1562.4600, -55.413
1562.4700, -55.684
1562.4800, -55.498
1562.4900, -55.627
1562.5000, -55.840
1562.5100, -55.959
1562.5200, -55.953
1562.5300, -55.787
1562.5400, -56.247
1562.5500, -55.878
1562.5600, -56.437
1562.5700, -56.463
1562.5800, -56.577
1562.5900, -56.855
1562.6000, -56.704
1562.6100, -57.123
1562.6200, -57.014
1562.6300, -56.532
1562.6400, -57.037
1562.6500, -56.817
1562.6600, -57.715
1562.6700, -57.768
1562.6800, -57.265
1562.6900, -57.263
1562.7000, -57.584
1562.7100, -57.050
1562.7200, -57.429
1562.7300, -57.598
1562.7400, -57.938
1562.7500, -58.032
1562.7600, -57.705
1562.7700, -58.190
1562.7800, -58.450
1562.7900, -58.499
1562.8000, -57.491
1562.8100, -58.298
1562.8200, -57.845
1562.8300, -58.236
1562.8400, -58.515
1562.8500, -58.899
1562.8600, -59.288
1562.8700, -59.061
1562.8800, -58.570
1562.8900, -58.923
1562.9000, -59.174
1562.9100, -59.821
1562.9200, -59.494
1562.9300, -58.967
1562.9400, -58.782
1562.9500, -58.289
1562.9600, -60.432
1562.9700, -58.854
1562.9800, -59.548
1562.9900, -59.586
1563.0000, -59.914
1563.0100, -60.565
1563.0200, -60.514
1563.0300, -59.530
1563.0400, -60.062
1563.0500, -60.480
1563.0600, -61.602
1563.0700, -61.812
1563.0800, -61.641
1563.0900, -60.121
1563.1000, -61.246
1563.1100, -60.216
1563.1200, -59.938
1563.1300, -61.061
1563.1400, -61.637
1563.1500, -62.525
1563.1600, -62.135
1563.1700, -62.104
1563.1800, -61.730
1563.1900, -59.815
1563.2000, -61.432
1563.2100, -61.430
1563.2200, -63.609
1563.2300, -64.080
1563.2400, -62.358
1563.2500, -63.542
1563.2600, -63.911
1563.2700, -62.142
1563.2800, -61.400
1563.2900, -63.092
1563.3000, -62.807
1563.3100, -67.239
1563.3200, -64.934
1563.3300, -62.068
1563.3400, -63.223
1563.3500, -67.504
1563.3600, -64.141
1563.3700, -65.718
1563.3800, -67.116
1563.3900, -65.856
1563.4000, -65.857
1563.4100, -62.938
1563.4200, -64.431
1563.4300, -66.406
1563.4400, -63.251
1563.4500, -63.019
1563.4600, -65.285
1563.4700, -64.109
1563.4800, -64.980
1563.4900, -63.124
1563.5000, -62.349
1563.5100, -64.820
1563.5200, -67.245
1563.5300, -78.566
1563.5400, -66.465
1563.5500, -65.800
1563.5600, -65.817
1563.5700, -66.581
1563.5800, -65.137
1563.5900,-210.000
1563.6000, -76.360
1563.6100, -89.552
1563.6200, -71.316
1563.6300, -73.757
1563.6400,-210.000
1563.6500, -64.170
1563.6600, -64.914
1563.6700, -69.798
1563.6800, -67.080
1563.6900, -69.581
1563.7000, -64.695
1563.7100, -79.866
1563.7200, -72.896
1563.7300, -66.271
1563.7400, -71.010
1563.7500,-210.000
1563.7600,-210.000
1563.7700, -68.898
1563.7800,-210.000
1563.7900, -68.750
1563.8000,-210.000
1563.8100, -63.800
1563.8200, -72.109
1563.8300, -94.986
1563.8400,-210.000
1563.8500,-210.000
1563.8600, -76.173
1563.8700, -67.219
1563.8800,-210.000
1563.8900, -73.099
1563.9000, -71.120
1563.9100, -73.931
1563.9200,-210.000
1563.9300, -76.872
1563.9400,-210.000
1563.9500,-210.000
1563.9600, -68.613
1563.9700, -71.990
1563.9800, -66.947
1563.9900, -69.925
1564.0000, -65.548
1564.0100, -71.019
1564.0200,-210.000
1564.0300, -69.402
1564.0400, -68.904
1564.0500, -66.872
1564.0600, -71.469
1564.0700, -77.125
1564.0800, -72.287
1564.0900, -64.292
1564.1000, -66.020
1564.1100, -68.178
1564.1200, -67.923
1564.1300,-210.000
1564.1400, -86.948
1564.1500,-210.000
1564.1600, -67.229
1564.1700, -70.093
1564.1800, -91.045
1564.1900,-210.000
1564.2000,-210.000
1564.2100, -69.726
1564.2200,-210.000
1564.2300, -68.543
1564.2400, -72.000
1564.2500, -69.965
1564.2600,-210.000
1564.2700,-210.000
1564.2800,-210.000
1564.2900, -69.141
1564.3000, -77.735
1564.3100,-210.000
1564.3200, -68.690
1564.3300,-210.000
1564.3400,-210.000
1564.3500, -67.688
1564.3600,-210.000
1564.3700, -74.143
1564.3800,-210.000
1564.3900, -69.448
1564.4000,-210.000
1564.4100, -67.107
1564.4200,-210.000
1564.4300,-210.000
1564.4400,-210.000
1564.4500,-210.000
1564.4600, -74.564
1564.4700,-210.000
1564.4800, -79.935
1564.4900, -68.483
1564.5000, -73.722
1564.5100,-210.000
1564.5200, -70.189
1564.5300,-210.000
1564.5400,-210.000
1564.5500, -72.178
1564.5600,-210.000
1564.5700, -77.568
1564.5800, -66.609
1564.5900, -66.340
1564.6000, -73.648
1564.6100, -69.106
1564.6200,-210.000
1564.6300, -66.264
1564.6400, -69.790
1564.6500,-210.000
1564.6600, -72.478
1564.6700,-210.000
1564.6800, -65.062
1564.6900, -67.576
1564.7000,-210.000
1564.7100, -64.511
1564.7200, -64.537
1564.7300, -68.797
1564.7400, -67.510
1564.7500, -64.481
1564.7600, -71.882
1564.7700,-210.000
1564.7800, -68.940
1564.7900, -67.922
1564.8000, -68.336
1564.8100, -67.912
1564.8200, -80.641
1564.8300, -70.731
1564.8400, -66.970
1564.8500,-210.000
1564.8600, -72.380
1564.8700, -73.644
1564.8800, -84.644
1564.8900, -68.777
1564.9000, -69.806
1564.9100, -67.523
1564.9200, -66.067
1564.9300,-210.000
1564.9400, -70.214
1564.9500, -65.707
1564.9600,-210.000
1564.9700, -67.181
1564.9800, -67.548
1564.9900, -69.685
1565.0000,-210.000
1565.0100,-210.000
1565.0200, -72.317
1565.0300, -69.465
1565.0400, -70.816
1565.0500, -67.420
1565.0600, -65.533
1565.0700, -75.014
1565.0800, -71.467
1565.0900, -75.812
1565.1000, -73.926
1565.1100,-210.000
1565.1200, -66.386
1565.1300, -75.229
1565.1400, -64.237
1565.1500,-210.000
1565.1600, -70.350
1565.1700, -65.511
1565.1800, -74.767
1565.1900, -67.252
1565.2000,-210.000
1565.2100, -73.455
1565.2200, -64.776
1565.2300, -65.075
1565.2400, -73.859
1565.2500, -68.580
1565.2600, -68.542
1565.2700, -77.472
1565.2800, -73.548
1565.2900, -78.000
1565.3000, -69.961
1565.3100,-210.000
1565.3200, -65.489
1565.3300, -68.440
1565.3400, -66.512
1565.3500, -69.269
1565.3600, -80.315
1565.3700, -67.708
1565.3800, -65.698
1565.3900, -64.689
1565.4000,-210.000
1565.4100, -65.260
1565.4200, -68.693
1565.4300, -80.653
1565.4400, -80.339
1565.4500, -65.754
1565.4600, -70.742
1565.4700, -64.334
1565.4800, -72.393
1565.4900,-210.000
1565.5000, -67.092
1565.5100, -67.619
1565.5200,-210.000
1565.5300, -70.079
1565.5400, -69.422
1565.5500, -68.544
1565.5600,-210.000
1565.5700, -71.922
1565.5800, -68.797
1565.5900, -67.871
1565.6000, -68.645
1565.6100,-210.000
1565.6200,-210.000
1565.6300, -66.726
1565.6400, -69.919
1565.6500, -63.875
1565.6600,-210.000
1565.6700, -66.215
1565.6800, -78.668
1565.6900, -71.656
1565.7000, -67.184
1565.7100,-210.000
1565.7200, -65.311
1565.7300, -65.268
1565.7400, -72.207
1565.7500, -69.374
1565.7600, -74.628
1565.7700, -66.193
1565.7800, -64.549
1565.7900, -70.640
1565.8000,-210.000
1565.8100,-210.000
1565.8200, -67.767
1565.8300, -68.064
1565.8400, -70.651
1565.8500, -75.685
1565.8600,-210.000
1565.8700, -66.947
1565.8800, -67.503
1565.8900, -65.025
1565.9000,-210.000
1565.9100,-210.000
1565.9200, -69.083
1565.9300, -69.522
1565.9400,-210.000
1565.9500, -68.985
1565.9600,-210.000
1565.9700, -71.227
1565.9800, -64.872
1565.9900,-210.000
1566.0000, -66.229
1566.0100, -65.238
1566.0200, -67.925
1566.0300,-210.000
1566.0400, -68.529
1566.0500, -67.318
1566.0600,-210.000
1566.0700, -72.167
1566.0800, -68.777
1566.0900, -66.382
1566.1000, -69.209
1566.1100, -69.094
1566.1200, -65.852
1566.1300, -66.010
1566.1400, -73.037
1566.1500, -67.436
1566.1600, -76.813
1566.1700, -65.367
1566.1800,-210.000
1566.1900, -66.382
1566.2000,-210.000
1566.2100, -70.957
1566.2200,-210.000
1566.2300, -71.638
1566.2400, -72.931
1566.2500, -72.700
1566.2600, -76.881
1566.2700, -66.833
1566.2800, -69.475
1566.2900, -68.204
1566.3000, -75.375
1566.3100, -65.740
1566.3200, -66.111
1566.3300, -66.977
1566.3400, -66.728
1566.3500, -67.417
1566.3600, -67.749
1566.3700,-210.000
1566.3800,-210.000
1566.3900,-210.000
1566.4000,-210.000
1566.4100,-210.000
1566.4200,-210.000
1566.4300, -73.458
1566.4400, -68.739
1566.4500, -68.486
1566.4600,-210.000
1566.4700,-210.000
1566.4800, -75.247
1566.4900, -68.636
1566.5000, -67.210
1566.5100,-210.000
1566.5200,-210.000
1566.5300,-210.000
1566.5400, -70.293
1566.5500, -65.366
1566.5600, -78.126
1566.5700,-210.000
1566.5800, -65.275
1566.5900, -76.044
1566.6000,-210.000
1566.6100,-210.000
1566.6200, -83.531
1566.6300, -70.538
1566.6400, -67.569
1566.6500, -64.980
1566.6600, -68.337
1566.6700, -69.045
1566.6800, -66.181
1566.6900, -69.421
1566.7000, -67.420
1566.7100, -69.555
1566.7200, -70.544
1566.7300, -67.734
1566.7400,-210.000
1566.7500, -65.918
1566.7600, -66.478
1566.7700,-210.000
1566.7800,-210.000
1566.7900, -69.130
1566.8000, -73.019
1566.8100,-210.000
1566.8200, -72.517
1566.8300, -71.361
1566.8400,-210.000
1566.8500, -67.662
1566.8600, -69.190
1566.8700,-210.000
1566.8800, -68.269
1566.8900, -71.700
1566.9000, -70.383
1566.9100, -68.309
1566.9200, -73.407
1566.9300, -67.552
1566.9400, -67.778
1566.9500,-210.000
1566.9600, -70.072
1566.9700, -68.405
1566.9800, -67.174
1566.9900,-210.000
1567.0000,-210.000
1567.0100,-210.000
1567.0200, -67.547
1567.0300,-210.000
1567.0400,-210.000
1567.0500,-210.000
1567.0600,-210.000
1567.0700, -69.896
1567.0800, -69.663
1567.0900,-210.000
1567.1000,-210.000
1567.1100, -68.929
1567.1200, -69.632
1567.1300,-210.000
1567.1400,-210.000
1567.1500, -64.212
1567.1600, -71.237
1567.1700,-210.000
1567.1800, -75.167
1567.1900, -73.298
1567.2000, -73.097
1567.2100, -70.884
1567.2200,-210.000
1567.2300,-210.000
1567.2400, -68.901
1567.2500, -66.810
1567.2600,-210.000
1567.2700, -69.613
1567.2800, -76.782
1567.2900,-210.000
1567.3000,-210.000
1567.3100,-210.000
1567.3200, -78.255
1567.3300, -68.957
1567.3400, -67.621
1567.3500,-210.000
1567.3600,-210.000
1567.3700, -71.889
1567.3800,-210.000
1567.3900, -66.524
1567.4000, -89.840
1567.4100, -67.591
1567.4200, -65.114
1567.4300,-210.000
1567.4400, -69.933
1567.4500,-210.000
1567.4600, -82.494
1567.4700, -93.499
1567.4800, -71.829
1567.4900, -73.875
1567.5000,-210.000
1567.5100, -66.394
1567.5200, -66.107
1567.5300,-210.000
1567.5400,-210.000
1567.5500,-210.000
1567.5600,-210.000
1567.5700,-210.000
1567.5800,-210.000
1567.5900, -72.931
1567.6000, -67.549
1567.6100, -74.556
1567.6200,-210.000
1567.6300, -68.394
1567.6400, -68.671
1567.6500, -69.276
1567.6600,-210.000
1567.6700,-210.000
1567.6800,-210.000
1567.6900,-210.000
1567.7000, -74.934
1567.7100, -78.596
1567.7200,-210.000
1567.7300,-210.000
1567.7400,-210.000
1567.7500, -70.119
1567.7600,-210.000
1567.7700, -78.086
1567.7800,-210.000
1567.7900, -70.088
1567.8000, -67.422
1567.8100,-210.000
1567.8200,-210.000
1567.8300,-210.000
1567.8400,-210.000
1567.8500, -74.094
1567.8600, -66.322
1567.8700, -68.353
1567.8800, -71.782
1567.8900, -69.305
1567.9000,-210.000
1567.9100, -67.563
1567.9200,-210.000
1567.9300, -78.696
1567.9400,-210.000
1567.9500, -70.893
1567.9600, -70.697
1567.9700, -67.479
1567.9800, -72.563
1567.9900,-210.000
1568.0000,-210.000
1568.0100,-210.000
1568.0200,-210.000
1568.0300, -71.206
1568.0400, -70.294
1568.0500, -68.144
1568.0600, -67.435
1568.0700,-210.000
1568.0800,-210.000
1568.0900, -75.752
1568.1000,-210.000
1568.1100,-210.000
1568.1200,-210.000
1568.1300, -65.178
1568.1400, -66.760
1568.1500, -71.866
1568.1600,-210.000
1568.1700,-210.000
1568.1800,-210.000
1568.1900,-210.000
1568.2000, -79.429
1568.2100,-210.000
1568.2200, -73.593
1568.2300, -67.155
1568.2400,-210.000
1568.2500,-210.000
1568.2600,-210.000
1568.2700,-210.000
1568.2800, -84.214
1568.2900, -68.599
1568.3000, -66.554
1568.3100, -67.334
1568.3200,-210.000
1568.3300, -76.779
1568.3400,-210.000
1568.3500, -70.957
1568.3600,-210.000
1568.3700,-210.000
1568.3800, -67.548
1568.3900, -80.360
1568.4000,-210.000
1568.4100,-210.000
1568.4200, -68.344
1568.4300,-210.000
1568.4400,-210.000
1568.4500,-210.000
1568.4600, -74.530
1568.4700,-210.000
1568.4800,-210.000
1568.4900, -68.069
1568.5000, -67.054
1568.5100, -79.128
1568.5200,-210.000
1568.5300, -76.579
1568.5400,-210.000
1568.5500,-210.000
1568.5600,-210.000
1568.5700, -64.633
1568.5800,-210.000
1568.5900, -68.164
1568.6000,-210.000
1568.6100,-210.000
1568.6200, -68.038
1568.6300, -68.622
1568.6400,-210.000
1568.6500,-210.000
1568.6600,-210.000
1568.6700,-210.000
1568.6800, -68.409
1568.6900,-210.000
1568.7000, -69.917
1568.7100,-210.000
1568.7200, -69.867
1568.7300, -68.672
1568.7400, -67.185
1568.7500, -71.613
1568.7600,-210.000
1568.7700,-210.000
1568.7800, -73.911
1568.7900, -65.758
1568.8000,-210.000
1568.8100,-210.000
1568.8200,-210.000
1568.8300,-210.000
1568.8400, -67.173
1568.8500, -66.951
1568.8600, -77.211
1568.8700,-210.000
1568.8800, -73.942
1568.8900, -69.100
1568.9000, -75.093
1568.9100,-210.000
1568.9200, -70.880
1568.9300, -72.224
1568.9400, -68.849
1568.9500, -69.419
1568.9600, -66.873
1568.9700,-210.000
1568.9800,-210.000
1568.9900,-210.000
1569.0000, -70.116
1569.0100, -66.550
1569.0200, -76.007
1569.0300,-210.000
1569.0400,-210.000
1569.0500,-210.000
1569.0600, -82.078
1569.0700, -64.597
1569.0800, -66.468
1569.0900, -70.977
1569.1000,-210.000
1569.1100,-210.000
1569.1200, -75.423
1569.1300, -69.978
1569.1400,-210.000
1569.1500, -66.897
1569.1600, -67.644
1569.1700, -70.273
1569.1800,-210.000
1569.1900,-210.000
1569.2000, -73.977
1569.2100, -69.616
1569.2200, -69.500
1569.2300, -70.668
1569.2400,-210.000
1569.2500, -79.238
1569.2600, -66.382
1569.2700, -68.863
1569.2800, -67.314
1569.2900,-210.000
1569.3000,-210.000
1569.3100,-210.000
1569.3200, -71.177
1569.3300,-210.000
1569.3400, -79.223
1569.3500, -70.057
1569.3600, -72.590
1569.3700, -70.750
1569.3800,-210.000
1569.3900, -67.929
1569.4000,-210.000
1569.4100,-210.000
1569.4200, -66.879
1569.4300, -65.052
1569.4400,-210.000
1569.4500,-210.000
1569.4600,-210.000
1569.4700,-210.000
1569.4800, -68.626
1569.4900,-210.000
1569.5000, -68.966
1569.5100,-210.000
1569.5200, -67.500
1569.5300, -70.139
1569.5400, -69.516
1569.5500,-210.000
1569.5600, -67.859
1569.5700,-210.000
1569.5800,-210.000
1569.5900,-210.000
1569.6000,-210.000
1569.6100,-210.000
1569.6200, -80.612
1569.6300, -73.041
1569.6400,-210.000
1569.6500, -66.218
1569.6600, -70.176
1569.6700,-210.000
1569.6800,-210.000
1569.6900,-210.000
1569.7000,-210.000
1569.7100, -70.159
1569.7200, -71.150
1569.7300, -66.694
1569.7400,-210.000
1569.7500,-210.000
1569.7600,-210.000
1569.7700,-210.000
1569.7800, -76.385
1569.7900,-210.000
1569.8000,-210.000
1569.8100,-210.000
1569.8200,-210.000
1569.8300, -71.542
1569.8400, -72.749
1569.8500, -67.640
1569.8600, -66.539
1569.8700, -68.764
1569.8800,-210.000
1569.8900, -70.432
1569.9000,-210.000
1569.9100, -76.308
1569.9200, -75.673
1569.9300,-210.000
1569.9400,-210.000
1569.9500,-210.000
1569.9600,-210.000
1569.9700, -68.744
1569.9800, -68.748
1569.9900, -68.467
1570.0000, -71.176
1570.0100, -73.781
1570.0200, -67.037
1570.0300,-210.000
1570.0400,-210.000
1570.0500, -82.797
1570.0600, -69.844
1570.0700, -66.313
1570.0800, -69.415
1570.0900, -69.998
1570.1000,-210.000
1570.1100,-210.000
1570.1200,-210.000
1570.1300, -77.692
1570.1400, -77.045
1570.1500,-210.000
1570.1600, -79.777
1570.1700, -75.658
1570.1800,-210.000
1570.1900,-210.000
1570.2000,-210.000
1570.2100, -76.146
1570.2200,-210.000
1570.2300,-210.000
1570.2400,-210.000
1570.2500, -76.180
1570.2600, -69.676
1570.2700, -68.278
1570.2800,-210.000
1570.2900, -73.640
1570.3000,-210.000
1570.3100, -66.974
1570.3200, -66.806
1570.3300,-210.000
1570.3400,-210.000
1570.3500,-210.000
1570.3600, -73.018
1570.3700, -71.079
1570.3800, -71.805
1570.3900, -78.057
1570.4000,-210.000
1570.4100, -70.584
1570.4200, -71.939
1570.4300,-210.000
1570.4400,-210.000
1570.4500,-210.000
1570.4600,-210.000
1570.4700, -70.525
1570.4800, -68.932
1570.4900, -77.621
1570.5000, -68.018
1570.5100, -67.228
1570.5200, -74.757
1570.5300, -68.377
1570.5400, -68.715
1570.5500,-210.000
1570.5600,-210.000
1570.5700, -71.125
1570.5800,-210.000
1570.5900, -74.125
1570.6000,-210.000
1570.6100,-210.000
1570.6200,-210.000
1570.6300, -69.278
1570.6400, -66.811
1570.6500, -79.114
1570.6600,-210.000
1570.6700,-210.000
1570.6800, -77.348
1570.6900,-210.000
1570.7000,-210.000
1570.7100,-210.000
1570.7200, -69.882
1570.7300,-210.000
1570.7400, -65.953
1570.7500, -68.093
1570.7600,-210.000
1570.7700,-210.000
1570.7800, -73.054
1570.7900,-210.000
1570.8000, -70.149
1570.8100, -72.596
1570.8200, -72.004
1570.8300, -68.935
1570.8400, -69.325
1570.8500,-210.000
1570.8600, -67.438
1570.8700,-210.000
1570.8800,-210.000
1570.8900,-210.000
1570.9000, -66.178
1570.9100,-210.000
1570.9200,-210.000
1570.9300,-210.000
1570.9400, -70.425
1570.9500, -68.891
1570.9600, -69.154
1570.9700, -65.821
1570.9800,-210.000
1570.9900,-210.000
1571.0000, -66.574
1571.0100,-210.000
1571.0200, -70.689
1571.0300, -83.502
1571.0400,-210.000
1571.0500,-210.000
1571.0600,-210.000
1571.0700,-210.000
1571.0800,-210.000
1571.0900,-210.000
1571.1000,-210.000
1571.1100,-210.000
1571.1200,-210.000
1571.1300,-210.000
1571.1400, -70.053
1571.1500, -69.395
1571.1600, -79.477
1571.1700, -76.132
1571.1800, -70.220
1571.1900, -75.545
1571.2000,-210.000
1571.2100, -74.212
1571.2200,-210.000
1571.2300,-210.000
1571.2400, -77.349
1571.2500, -73.777
1571.2600, -68.576
1571.2700, -67.506
1571.2800, -67.387
1571.2900,-210.000
1571.3000,-210.000
1571.3100, -71.849
1571.3200, -66.343
1571.3300, -73.050
1571.3400,-210.000
1571.3500, -65.008
1571.3600, -70.219
1571.3700, -70.332
1571.3800,-210.000
1571.3900, -75.778
1571.4000, -70.522
1571.4100,-210.000
1571.4200, -72.278
1571.4300, -69.592
1571.4400,-210.000
1571.4500, -66.939
1571.4600, -68.833
1571.4700,-210.000
1571.4800,-210.000
1571.4900, -70.122
1571.5000,-210.000
1571.5100,-210.000
1571.5200, -66.059
1571.5300,-210.000
1571.5400,-210.000
1571.5500,-210.000
1571.5600, -70.605
1571.5700,-210.000
1571.5800, -69.508
1571.5900, -66.438
1571.6000,-210.000
1571.6100, -74.529
1571.6200, -67.618
1571.6300,-210.000
1571.6400,-210.000
1571.6500,-210.000
1571.6600, -76.196
1571.6700, -75.526
1571.6800, -70.448
1571.6900, -68.824
1571.7000,-210.000
1571.7100,-210.000
1571.7200, -77.098
1571.7300,-210.000
1571.7400,-210.000
1571.7500,-210.000
1571.7600, -65.501
1571.7700, -69.257
1571.7800,-210.000
1571.7900,-210.000
1571.8000, -66.174
1571.8100, -71.564
1571.8200, -68.633
1571.8300, -65.348
1571.8400, -68.687
1571.8500,-210.000
1571.8600,-210.000
1571.8700, -73.478
1571.8800, -68.376
1571.8900,-210.000
1571.9000,-210.000
1571.9100, -78.890
1571.9200,-210.000
1571.9300,-210.000
1571.9400,-210.000
1571.9500, -68.994
1571.9600, -68.637
1571.9700,-210.000
1571.9800,-210.000
1571.9900, -69.343
1572.0000, -64.911
1572.0100, -69.286
1572.0200,-210.000
1572.0300, -66.700
1572.0400,-210.000
1572.0500,-210.000
1572.0600, -67.668
1572.0700,-210.000
1572.0800,-210.000
1572.0900,-210.000
1572.1000,-210.000
1572.1100,-210.000
1572.1200, -67.090
1572.1300,-210.000
1572.1400, -72.007
1572.1500,-210.000
1572.1600, -66.309
1572.1700, -67.672
1572.1800, -74.354
1572.1900, -70.955
1572.2000, -70.762
1572.2100, -68.541
1572.2200,-210.000
1572.2300,-210.000
1572.2400,-210.000
1572.2500, -76.699
1572.2600, -78.364
1572.2700,-210.000
1572.2800,-210.000
1572.2900,-210.000
1572.3000, -69.276
1572.3100,-210.000
1572.3200, -69.950
1572.3300, -66.225
1572.3400, -69.285
1572.3500,-210.000
1572.3600, -66.594
1572.3700, -85.678
1572.3800, -70.386
1572.3900, -65.555
1572.4000,-210.000
1572.4100,-210.000
1572.4200, -68.543
1572.4300, -71.646
1572.4400, -69.580
1572.4500, -74.430
1572.4600,-210.000
1572.4700,-210.000
1572.4800, -68.025
1572.4900, -71.679
1572.5000, -73.934
1572.5100,-210.000
1572.5200, -65.616
1572.5300, -69.955
1572.5400,-210.000
1572.5500,-210.000
1572.5600, -73.622
1572.5700, -76.487
1572.5800,-210.000
1572.5900,-210.000
1572.6000,-210.000
1572.6100, -68.162
1572.6200,-210.000
1572.6300,-210.000
1572.6400, -64.964
1572.6500,-210.000
1572.6600, -68.793
1572.6700, -73.785
1572.6800,-210.000
1572.6900,-210.000
1572.7000, -65.495
1572.7100,-210.000
1572.7200,-210.000
1572.7300, -74.640
1572.7400, -69.824
1572.7500, -70.797
1572.7600, -67.717
1572.7700, -68.407
1572.7800, -66.044
1572.7900,-210.000
1572.8000,-210.000
1572.8100, -68.540
1572.8200, -70.550
1572.8300, -64.474
1572.8400, -72.297
1572.8500, -75.410
1572.8600, -69.855
1572.8700,-210.000
1572.8800, -65.852
1572.8900, -71.847
1572.9000, -67.191
1572.9100,-210.000
1572.9200,-210.000
1572.9300, -64.894
1572.9400, -70.268
1572.9500,-210.000
1572.9600,-210.000
1572.9700,-210.000
1572.9800,-210.000
1572.9900,-210.000
1573.0000, -68.006
1573.0100, -67.225
1573.0200, -72.457
1573.0300, -67.001
1573.0400, -70.534
1573.0500,-210.000
1573.0600, -70.427
1573.0700,-210.000
1573.0800,-210.000
1573.0900,-210.000
1573.1000,-210.000
1573.1100,-210.000
1573.1200,-210.000
1573.1300, -70.960
1573.1400, -64.839
1573.1500, -65.335
1573.1600, -65.847
1573.1700, -67.859
1573.1800, -75.717
1573.1900,-210.000
1573.2000, -70.061
1573.2100,-210.000
1573.2200,-210.000
1573.2300, -64.974
1573.2400, -72.372
1573.2500,-210.000
1573.2600, -66.604
1573.2700, -67.432
1573.2800, -77.841
1573.2900, -72.150
1573.3000, -72.179
1573.3100, -77.517
1573.3200,-210.000
1573.3300,-210.000
1573.3400, -68.243
1573.3500,-210.000
1573.3600,-210.000
1573.3700,-210.000
1573.3800, -69.891
1573.3900, -67.571
1573.4000, -72.372
1573.4100,-210.000
1573.4200,-210.000
1573.4300, -66.600
1573.4400,-210.000
1573.4500,-210.000
1573.4600,-210.000
1573.4700,-210.000
1573.4800, -71.317
1573.4900, -71.448
1573.5000,-210.000
1573.5100,-210.000
1573.5200,-210.000
1573.5300,-210.000
1573.5400,-210.000
1573.5500,-210.000
1573.5600,-210.000
1573.5700, -65.503
1573.5800, -64.401
1573.5900,-210.000
1573.6000,-210.000
1573.6100, -79.831
1573.6200, -67.558
1573.6300,-210.000
1573.6400, -65.954
1573.6500,-210.000
1573.6600, -70.344
1573.6700, -65.193
1573.6800, -67.349
1573.6900,-210.000
1573.7000, -75.461
1573.7100,-210.000
1573.7200,-210.000
1573.7300,-210.000
1573.7400,-210.000
1573.7500,-210.000
1573.7600, -73.069
1573.7700, -75.529
1573.7800,-210.000
1573.7900,-210.000
1573.8000,-210.000
1573.8100, -71.210
1573.8200,-210.000
1573.8300, -67.662
1573.8400, -68.518
1573.8500,-210.000
1573.8600,-210.000
1573.8700, -63.520
1573.8800,-210.000
1573.8900, -82.001
1573.9000, -71.831
1573.9100, -74.668
1573.9200, -70.038
1573.9300,-210.000
1573.9400, -71.487
1573.9500, -64.855
1573.9600, -70.389
1573.9700, -70.080
1573.9800,-210.000
1573.9900, -78.264
1574.0000, -77.214
1574.0100,-210.000
1574.0200,-210.000
1574.0300,-210.000
1574.0400,-210.000
1574.0500, -70.118
1574.0600, -74.723
1574.0700, -67.651
1574.0800, -76.059
1574.0900,-210.000
1574.1000,-210.000
1574.1100, -71.066
1574.1200,-210.000
1574.1300, -75.441
1574.1400,-210.000
1574.1500,-210.000
1574.1600, -77.834
1574.1700, -67.759
1574.1800,-210.000
1574.1900,-210.000
1574.2000,-210.000
1574.2100, -67.256
1574.2200, -73.436
1574.2300, -67.966
1574.2400, -73.704
1574.2500,-210.000
1574.2600,-210.000
1574.2700,-210.000
1574.2800, -72.849
1574.2900, -66.517
1574.3000,-210.000
1574.3100, -79.820
1574.3200,-210.000
1574.3300,-210.000
1574.3400,-210.000
1574.3500, -67.631
1574.3600,-210.000
1574.3700,-210.000
1574.3800, -71.855
1574.3900, -68.608
1574.4000,-210.000
1574.4100,-210.000
1574.4200, -68.850
1574.4300,-210.000
1574.4400, -67.863
1574.4500,-210.000
1574.4600, -73.745
1574.4700, -66.621
1574.4800, -73.603
1574.4900,-210.000
1574.5000,-210.000
1574.5100, -83.640
1574.5200, -65.971
1574.5300, -75.122
1574.5400,-210.000
1574.5500,-210.000
1574.5600, -66.698
1574.5700, -67.731
1574.5800,-210.000
1574.5900,-210.000
1574.6000,-210.000
1574.6100,-210.000
1574.6200,-210.000
1574.6300, -68.667
1574.6400, -70.682
1574.6500,-210.000
1574.6600, -65.616
1574.6700, -66.318
1574.6800,-210.000
1574.6900, -66.321
1574.7000, -67.715
1574.7100,-210.000
1574.7200, -67.584
1574.7300,-210.000
1574.7400, -65.634
1574.7500, -66.961
1574.7600, -65.927
1574.7700, -77.564
1574.7800, -69.241
1574.7900, -69.241
1574.8000,-210.000
1574.8100, -73.294
1574.8200,-210.000
1574.8300, -77.801
1574.8400, -72.722
1574.8500,-210.000
1574.8600, -64.925
1574.8700, -80.296
1574.8800,-210.000
1574.8900, -65.795
1574.9000,-210.000
1574.9100,-210.000
1574.9200, -66.367
1574.9300,-210.000
1574.9400,-210.000
1574.9500,-210.000
1574.9600, -78.662
1574.9700, -65.067
1574.9800,-210.000
1574.9900, -67.578
1575.0000, -82.505
1575.0100, -66.611
1575.0200,-210.000
1575.0300, -77.678
1575.0400,-210.000
1575.0500,-210.000
1575.0600,-210.000
1575.0700,-210.000
1575.0800, -74.749
1575.0900,-210.000
1575.1000,-210.000
1575.1100,-210.000
1575.1200, -69.555
1575.1300,-210.000
1575.1400, -68.851
1575.1500, -75.113
1575.1600,-210.000
1575.1700, -68.258
1575.1800,-210.000
1575.1900,-210.000
1575.2000,-210.000
1575.2100,-210.000
1575.2200, -69.157
1575.2300,-210.000
1575.2400, -68.845
1575.2500, -70.726
