74CSV  	
// AQ6374 OPTICAL SPECTRUM ANALYZER //                  
35
"CTRWL",1550.000000
"SPAN",  50.500000
"START WL",1524.750000
"STOP WL",1575.250000
"WLFREQ", 0
"REFL",-10.0
"LSCL",10.0
"RESLN",0.050
"AVG",   1
"SMPLAUTO",      1
"SMPL",       5051
"SMPLINTVL",0.0100
"HIGH1"
"MEAS"
"LSUNT",1
"NMSKH","OFF"
"RESCOR",0
"SMOOTH",0
"MEASWL",0
"SWPSPD",1
"MODELNAME","AQ6374"
"CHGPT",          0
"RESCAL0_0",      10102
"RESCAL0_1",       -171
"RESCAL0_2",     264153
"RESCAL1_0",      10290
"RESCAL1_1",          0
"RESCAL1_2",          0
"CORESIZE", 0






"[TRACE DATA]"
1524.7500, -82.366
1524.7600,-210.000
1524.7700,-210.000
1524.7800, -65.290
1524.7900, -69.418
1524.8000, -73.891
1524.8100, -65.339
1524.8200, -68.486
1524.8300, -66.584
1524.8400, -97.087
1524.8500,-210.000
1524.8600,-210.000
1524.8700, -69.979
1524.8800,-210.000
1524.8900, -65.192
1524.9000,-210.000
1524.9100,-210.000
1524.9200, -79.535
1524.9300, -67.067
1524.9400, -74.589
1524.9500, -64.323
1524.9600, -65.318
1524.9700,-210.000
1524.9800,-210.000
1524.9900,-210.000
1525.0000,-210.000
1525.0100,-210.000
1525.0200,-210.000
1525.0300, -78.522
1525.0400,-210.000
1525.0500,-210.000
1525.0600, -71.390
1525.0700, -71.950
1525.0800, -72.746
1525.0900, -66.980
1525.1000, -71.864
1525.1100, -73.674
1525.1200,-210.000
1525.1300,-210.000
1525.1400,-210.000
1525.1500, -78.784
1525.1600,-210.000
1525.1700,-210.000
1525.1800,-210.000
1525.1900, -76.854
1525.2000, -71.407
1525.2100, -69.798
1525.2200, -68.716
1525.2300,-210.000
1525.2400, -78.499
1525.2500, -69.633
1525.2600, -75.314
1525.2700, -67.618
1525.2800,-210.000
1525.2900,-210.000
1525.3000, -74.606
1525.3100, -80.556
1525.3200, -93.084
1525.3300, -68.377
1525.3400,-210.000
1525.3500,-210.000
1525.3600,-210.000
1525.3700,-210.000
1525.3800, -71.925
1525.3900, -75.088
1525.4000,-210.000
1525.4100,-210.000
1525.4200, -70.466
1525.4300, -72.502
1525.4400,-210.000
1525.4500,-210.000
1525.4600, -68.181
1525.4700, -68.999
1525.4800, -67.929
1525.4900, -67.102
1525.5000, -69.221
1525.5100, -69.197
1525.5200, -75.738
1525.5300,-210.000
1525.5400,-210.000
1525.5500,-210.000
1525.5600,-210.000
1525.5700, -67.187
1525.5800,-210.000
1525.5900, -72.386
1525.6000, -74.701
1525.6100,-210.000
1525.6200, -65.920
1525.6300, -69.755
1525.6400,-210.000
1525.6500, -78.616
1525.6600, -69.493
1525.6700, -71.122
1525.6800,-210.000
1525.6900,-210.000
1525.7000,-210.000
1525.7100, -68.890
1525.7200,-210.000
1525.7300,-210.000
1525.7400, -67.833
1525.7500, -76.027
1525.7600, -65.060
1525.7700, -74.518
1525.7800, -74.018
1525.7900, -65.765
1525.8000, -69.632
1525.8100, -69.224
1525.8200, -67.160
1525.8300, -67.230
1525.8400,-210.000
1525.8500,-210.000
1525.8600,-210.000
1525.8700, -68.057
1525.8800, -70.733
1525.8900,-210.000
1525.9000,-210.000
1525.9100,-210.000
1525.9200, -68.065
1525.9300,-210.000
1525.9400, -67.257
1525.9500,-210.000
1525.9600, -70.368
1525.9700,-210.000
1525.9800,-210.000
1525.9900, -77.493
1526.0000,-210.000
1526.0100, -69.398
1526.0200, -76.091
1526.0300, -74.995
1526.0400, -74.071
1526.0500, -70.387
1526.0600,-210.000
1526.0700,-210.000
1526.0800,-210.000
1526.0900, -68.435
1526.1000,-210.000
1526.1100, -67.609
1526.1200, -70.870
1526.1300, -71.109
1526.1400, -69.712
1526.1500,-210.000
1526.1600,-210.000
1526.1700, -68.308
1526.1800,-210.000
1526.1900,-210.000
1526.2000,-210.000
1526.2100,-210.000
1526.2200,-210.000
1526.2300,-210.000
1526.2400, -64.510
1526.2500, -66.437
1526.2600,-210.000
1526.2700, -73.586
1526.2800, -68.147
1526.2900, -69.998
1526.3000, -74.441
1526.3100,-210.000
1526.3200,-210.000
1526.3300, -68.756
1526.3400,-210.000
1526.3500,-210.000
1526.3600, -68.484
1526.3700,-210.000
1526.3800, -69.742
1526.3900, -78.255
1526.4000, -65.468
1526.4100,-210.000
1526.4200, -71.266
1526.4300,-210.000
1526.4400,-210.000
1526.4500, -67.421
1526.4600, -65.544
1526.4700, -66.267
1526.4800,-210.000
1526.4900,-210.000
1526.5000, -70.173
1526.5100,-210.000
1526.5200,-210.000
1526.5300,-210.000
1526.5400, -71.953
1526.5500, -71.507
1526.5600, -80.503
1526.5700,-210.000
1526.5800,-210.000
1526.5900,-210.000
1526.6000,-210.000
1526.6100,-210.000
1526.6200,-210.000
1526.6300, -69.508
1526.6400,-210.000
1526.6500,-210.000
1526.6600, -65.207
1526.6700, -71.687
1526.6800, -70.685
1526.6900, -72.867
1526.7000,-210.000
1526.7100,-210.000
1526.7200, -74.759
1526.7300,-210.000
1526.7400, -76.043
1526.7500, -68.878
1526.7600,-210.000
1526.7700, -80.700
1526.7800,-210.000
1526.7900,-210.000
1526.8000,-210.000
1526.8100,-210.000
1526.8200, -68.679
1526.8300, -87.541
1526.8400, -68.503
1526.8500, -66.533
1526.8600, -69.947
1526.8700, -80.085
1526.8800, -90.675
1526.8900,-210.000
1526.9000, -69.907
1526.9100, -68.881
1526.9200,-210.000
1526.9300,-210.000
1526.9400, -72.666
1526.9500, -74.463
1526.9600, -68.282
1526.9700,-210.000
1526.9800,-210.000
1526.9900, -72.770
1527.0000, -72.257
1527.0100,-210.000
1527.0200, -79.128
1527.0300,-210.000
1527.0400, -65.059
1527.0500,-210.000
1527.0600,-210.000
1527.0700,-210.000
1527.0800, -68.959
1527.0900, -68.240
1527.1000, -74.783
1527.1100,-210.000
1527.1200, -68.472
1527.1300, -77.940
1527.1400,-210.000
1527.1500, -80.063
1527.1600, -69.201
1527.1700, -71.634
1527.1800, -68.856
1527.1900,-210.000
1527.2000,-210.000
1527.2100, -73.890
1527.2200,-210.000
1527.2300, -67.215
1527.2400, -68.513
1527.2500, -66.410
1527.2600,-210.000
1527.2700, -70.822
1527.2800,-210.000
1527.2900,-210.000
1527.3000,-210.000
1527.3100,-210.000
1527.3200, -77.876
1527.3300, -70.272
1527.3400,-210.000
1527.3500,-210.000
1527.3600, -89.940
1527.3700,-210.000
1527.3800, -69.371
1527.3900, -70.483
1527.4000, -67.372
1527.4100,-210.000
1527.4200,-210.000
1527.4300,-210.000
1527.4400,-210.000
1527.4500,-210.000
1527.4600,-210.000
1527.4700, -71.701
1527.4800, -70.451
1527.4900, -69.665
1527.5000, -67.212
1527.5100, -68.117
1527.5200,-210.000
1527.5300, -76.948
1527.5400, -70.667
1527.5500,-210.000
1527.5600,-210.000
1527.5700, -85.349
1527.5800, -72.887
1527.5900, -65.478
1527.6000,-210.000
1527.6100,-210.000
1527.6200,-210.000
1527.6300,-210.000
1527.6400, -68.052
1527.6500,-210.000
1527.6600,-210.000
1527.6700, -68.097
1527.6800,-210.000
1527.6900, -78.284
1527.7000, -72.431
1527.7100, -68.299
1527.7200, -69.840
1527.7300, -69.503
1527.7400, -71.563
1527.7500,-210.000
1527.7600, -69.800
1527.7700,-210.000
1527.7800, -89.276
1527.7900,-210.000
1527.8000,-210.000
1527.8100,-210.000
1527.8200,-210.000
1527.8300, -78.246
1527.8400,-210.000
1527.8500, -69.946
1527.8600,-210.000
1527.8700,-210.000
1527.8800,-210.000
1527.8900, -70.210
1527.9000,-210.000
1527.9100,-210.000
1527.9200, -68.829
1527.9300,-210.000
1527.9400, -70.353
1527.9500,-210.000
1527.9600,-210.000
1527.9700, -70.752
1527.9800,-210.000
1527.9900,-210.000
1528.0000, -69.453
1528.0100, -77.734
1528.0200, -66.247
1528.0300, -73.484
1528.0400,-210.000
1528.0500,-210.000
1528.0600,-210.000
1528.0700,-210.000
1528.0800,-210.000
1528.0900, -73.291
1528.1000, -68.073
1528.1100,-210.000
1528.1200, -70.616
1528.1300,-210.000
1528.1400, -66.837
1528.1500,-210.000
1528.1600,-210.000
1528.1700, -66.322
1528.1800, -68.017
1528.1900,-210.000
1528.2000, -69.614
1528.2100,-210.000
1528.2200, -74.731
1528.2300,-210.000
1528.2400, -71.776
1528.2500, -83.717
1528.2600,-210.000
1528.2700,-210.000
1528.2800, -72.834
1528.2900, -70.119
1528.3000, -90.510
1528.3100,-210.000
1528.3200, -70.027
1528.3300,-210.000
1528.3400, -76.969
1528.3500, -71.651
1528.3600, -67.767
1528.3700, -70.643
1528.3800, -70.995
1528.3900, -69.908
1528.4000, -74.589
1528.4100, -67.923
1528.4200, -65.240
1528.4300, -68.287
1528.4400, -66.182
1528.4500,-210.000
1528.4600, -68.946
1528.4700, -70.906
1528.4800, -68.570
1528.4900, -71.598
1528.5000, -67.095
1528.5100, -68.846
1528.5200, -70.596
1528.5300,-210.000
1528.5400, -68.579
1528.5500,-210.000
1528.5600, -73.921
1528.5700, -72.534
1528.5800,-210.000
1528.5900,-210.000
1528.6000, -66.615
1528.6100, -71.263
1528.6200,-210.000
1528.6300, -67.894
1528.6400, -67.847
1528.6500, -67.168
1528.6600, -69.402
1528.6700, -70.353
1528.6800,-210.000
1528.6900,-210.000
1528.7000,-210.000
1528.7100, -75.930
1528.7200, -69.828
1528.7300,-210.000
1528.7400,-210.000
1528.7500,-210.000
1528.7600, -81.306
1528.7700, -68.332
1528.7800,-210.000
1528.7900,-210.000
1528.8000,-210.000
1528.8100,-210.000
1528.8200, -75.653
1528.8300, -78.358
1528.8400,-210.000
1528.8500,-210.000
1528.8600, -69.608
1528.8700,-210.000
1528.8800, -78.525
1528.8900, -67.085
1528.9000,-210.000
1528.9100,-210.000
1528.9200,-210.000
1528.9300, -65.216
1528.9400, -76.036
1528.9500, -71.585
1528.9600, -71.569
1528.9700, -77.367
1528.9800,-210.000
1528.9900, -93.473
1529.0000, -79.033
1529.0100, -66.526
1529.0200, -69.434
1529.0300, -67.919
1529.0400, -76.045
1529.0500,-210.000
1529.0600,-210.000
1529.0700, -71.149
1529.0800,-210.000
1529.0900, -69.647
1529.1000, -68.356
1529.1100, -69.835
1529.1200, -67.825
1529.1300,-210.000
1529.1400, -69.439
1529.1500, -69.639
1529.1600,-210.000
1529.1700,-210.000
1529.1800,-210.000
1529.1900,-210.000
1529.2000,-210.000
1529.2100, -65.520
1529.2200, -68.355
1529.2300,-210.000
1529.2400,-210.000
1529.2500,-210.000
1529.2600,-210.000
1529.2700,-210.000
1529.2800,-210.000
1529.2900,-210.000
1529.3000, -72.937
1529.3100, -67.875
1529.3200, -67.436
1529.3300,-210.000
1529.3400, -66.311
1529.3500,-210.000
1529.3600,-210.000
1529.3700, -67.880
1529.3800,-210.000
1529.3900, -71.228
1529.4000,-210.000
1529.4100, -77.777
1529.4200, -75.076
1529.4300,-210.000
1529.4400, -65.164
1529.4500, -75.217
1529.4600, -69.333
1529.4700, -71.267
1529.4800,-210.000
1529.4900,-210.000
1529.5000,-210.000
1529.5100,-210.000
1529.5200, -70.205
1529.5300,-210.000
1529.5400, -77.865
1529.5500, -69.149
1529.5600,-210.000
1529.5700, -71.252
1529.5800, -73.216
1529.5900,-210.000
1529.6000,-210.000
1529.6100,-210.000
1529.6200, -63.550
1529.6300,-210.000
1529.6400, -69.280
1529.6500, -68.418
1529.6600,-210.000
1529.6700, -66.399
1529.6800, -68.915
1529.6900, -66.299
1529.7000, -63.175
1529.7100,-210.000
1529.7200,-210.000
1529.7300, -84.081
1529.7400, -66.537
1529.7500,-210.000
1529.7600,-210.000
1529.7700, -67.263
1529.7800,-210.000
1529.7900,-210.000
1529.8000, -80.703
1529.8100, -72.701
1529.8200, -69.099
1529.8300, -71.755
1529.8400, -70.500
1529.8500, -72.677
1529.8600,-210.000
1529.8700, -66.373
1529.8800, -76.002
1529.8900, -74.565
1529.9000,-210.000
1529.9100,-210.000
1529.9200,-210.000
1529.9300, -70.528
1529.9400, -65.649
1529.9500, -77.874
1529.9600,-210.000
1529.9700, -74.687
1529.9800,-210.000
1529.9900,-210.000
1530.0000,-210.000
1530.0100, -66.006
1530.0200, -88.980
1530.0300,-210.000
1530.0400, -77.160
1530.0500,-210.000
1530.0600, -66.609
1530.0700,-210.000
1530.0800, -66.356
1530.0900, -69.638
1530.1000,-210.000
1530.1100, -68.825
1530.1200, -69.378
1530.1300, -68.654
1530.1400,-210.000
1530.1500,-210.000
1530.1600, -71.213
1530.1700, -69.834
1530.1800, -71.492
1530.1900, -72.672
1530.2000,-210.000
1530.2100, -69.014
1530.2200, -68.795
1530.2300,-210.000
1530.2400,-210.000
1530.2500,-210.000
1530.2600, -83.884
1530.2700, -72.533
1530.2800, -70.919
1530.2900,-210.000
1530.3000, -72.708
1530.3100, -72.016
1530.3200,-210.000
1530.3300,-210.000
1530.3400, -70.647
1530.3500, -64.827
1530.3600, -67.190
1530.3700, -70.310
1530.3800,-210.000
1530.3900,-210.000
1530.4000, -77.081
1530.4100, -79.287
1530.4200,-210.000
1530.4300, -75.405
1530.4400, -68.991
1530.4500, -71.547
1530.4600, -72.140
1530.4700, -69.531
1530.4800,-210.000
1530.4900, -84.095
1530.5000,-210.000
1530.5100, -77.178
1530.5200,-210.000
1530.5300, -88.912
1530.5400, -76.451
1530.5500, -74.578
1530.5600, -70.572
1530.5700, -75.572
1530.5800,-210.000
1530.5900, -74.907
1530.6000, -65.151
1530.6100, -77.325
1530.6200,-210.000
1530.6300,-210.000
1530.6400,-210.000
1530.6500,-210.000
1530.6600,-210.000
1530.6700, -67.582
1530.6800, -69.025
1530.6900, -66.372
1530.7000, -76.622
1530.7100,-210.000
1530.7200, -71.608
1530.7300,-210.000
1530.7400, -66.127
1530.7500,-210.000
1530.7600,-210.000
1530.7700, -68.257
1530.7800, -74.982
1530.7900, -77.081
1530.8000, -72.546
1530.8100,-210.000
1530.8200,-210.000
1530.8300,-210.000
1530.8400,-210.000
1530.8500,-210.000
1530.8600, -74.433
1530.8700,-210.000
1530.8800, -69.460
1530.8900,-210.000
1530.9000, -68.039
1530.9100,-210.000
1530.9200,-210.000
1530.9300, -74.487
1530.9400,-210.000
1530.9500,-210.000
1530.9600, -65.882
1530.9700, -69.259
1530.9800, -74.206
1530.9900, -68.698
1531.0000, -68.034
1531.0100,-210.000
1531.0200,-210.000
1531.0300, -65.542
1531.0400, -72.492
1531.0500, -74.046
1531.0600, -68.395
1531.0700,-210.000
1531.0800,-210.000
1531.0900, -82.006
1531.1000,-210.000
1531.1100, -72.306
1531.1200, -65.920
1531.1300, -75.805
1531.1400, -65.648
1531.1500,-210.000
1531.1600,-210.000
1531.1700, -69.793
1531.1800,-210.000
1531.1900, -73.062
1531.2000,-210.000
1531.2100, -67.492
1531.2200, -68.713
1531.2300,-210.000
1531.2400,-210.000
1531.2500, -70.880
1531.2600,-210.000
1531.2700, -74.051
1531.2800, -69.706
1531.2900, -68.776
1531.3000,-210.000
1531.3100, -67.686
1531.3200,-210.000
1531.3300,-210.000
1531.3400, -65.887
1531.3500,-210.000
1531.3600, -69.500
1531.3700,-210.000
1531.3800,-210.000
1531.3900,-210.000
1531.4000, -66.681
1531.4100, -68.566
1531.4200, -71.368
1531.4300, -68.536
1531.4400,-210.000
1531.4500, -70.035
1531.4600,-210.000
1531.4700,-210.000
1531.4800, -67.533
1531.4900,-210.000
1531.5000,-210.000
1531.5100, -78.134
1531.5200,-210.000
1531.5300, -71.105
1531.5400, -71.440
1531.5500,-210.000
1531.5600,-210.000
1531.5700,-210.000
1531.5800,-210.000
1531.5900, -79.346
1531.6000, -72.887
1531.6100, -70.753
1531.6200, -65.569
1531.6300, -83.675
1531.6400,-210.000
1531.6500, -64.922
1531.6600, -68.092
1531.6700, -72.993
1531.6800, -69.582
1531.6900, -69.756
1531.7000, -69.700
1531.7100, -77.325
1531.7200,-210.000
1531.7300,-210.000
1531.7400,-210.000
1531.7500,-210.000
1531.7600,-210.000
1531.7700, -68.855
1531.7800, -73.078
1531.7900, -71.602
1531.8000, -71.940
1531.8100,-210.000
1531.8200,-210.000
1531.8300, -70.110
1531.8400, -70.845
1531.8500, -65.603
1531.8600, -68.416
1531.8700, -68.693
1531.8800,-210.000
1531.8900, -77.598
1531.9000,-210.000
1531.9100,-210.000
1531.9200,-210.000
1531.9300, -71.381
1531.9400, -71.189
1531.9500, -78.915
1531.9600, -75.349
1531.9700,-210.000
1531.9800,-210.000
1531.9900,-210.000
1532.0000,-210.000
1532.0100,-210.000
1532.0200, -73.981
1532.0300,-210.000
1532.0400,-210.000
1532.0500,-210.000
1532.0600,-210.000
1532.0700, -66.772
1532.0800, -72.621
1532.0900, -71.152
1532.1000, -68.334
1532.1100,-210.000
1532.1200, -72.576
1532.1300, -72.115
1532.1400, -75.888
1532.1500, -71.833
1532.1600, -76.020
1532.1700, -65.183
1532.1800,-210.000
1532.1900,-210.000
1532.2000, -73.127
1532.2100,-210.000
1532.2200, -68.678
1532.2300, -68.756
1532.2400,-210.000
1532.2500,-210.000
1532.2600,-210.000
1532.2700, -68.879
1532.2800,-210.000
1532.2900,-210.000
1532.3000,-210.000
1532.3100, -69.823
1532.3200,-210.000
1532.3300,-210.000
1532.3400, -80.559
1532.3500, -84.313
1532.3600, -70.485
1532.3700,-210.000
1532.3800,-210.000
1532.3900,-210.000
1532.4000,-210.000
1532.4100, -74.124
1532.4200, -71.230
1532.4300, -75.872
1532.4400,-210.000
1532.4500,-210.000
1532.4600, -73.108
1532.4700, -69.365
1532.4800, -69.933
1532.4900,-210.000
1532.5000, -69.138
1532.5100,-210.000
1532.5200,-210.000
1532.5300,-210.000
1532.5400, -70.186
1532.5500,-210.000
1532.5600, -68.566
1532.5700, -75.980
1532.5800, -70.659
1532.5900,-210.000
1532.6000,-210.000
1532.6100, -69.970
1532.6200, -71.194
1532.6300, -65.141
1532.6400, -79.398
1532.6500,-210.000
1532.6600, -68.321
1532.6700, -72.073
1532.6800,-210.000
1532.6900, -67.357
1532.7000, -65.429
1532.7100, -68.643
1532.7200,-210.000
1532.7300,-210.000
1532.7400,-210.000
1532.7500, -66.187
1532.7600, -68.180
1532.7700, -65.338
1532.7800,-210.000
1532.7900,-210.000
1532.8000,-210.000
1532.8100, -75.165
1532.8200, -66.933
1532.8300, -68.061
1532.8400,-210.000
1532.8500,-210.000
1532.8600,-210.000
1532.8700, -68.892
1532.8800, -65.659
1532.8900, -66.435
1532.9000,-210.000
1532.9100,-210.000
1532.9200,-210.000
1532.9300,-210.000
1532.9400,-210.000
1532.9500, -68.271
1532.9600,-210.000
1532.9700, -66.326
1532.9800,-210.000
1532.9900,-210.000
1533.0000, -68.818
1533.0100, -69.833
1533.0200, -72.207
1533.0300,-210.000
1533.0400,-210.000
1533.0500,-210.000
1533.0600,-210.000
1533.0700, -67.452
1533.0800,-210.000
1533.0900, -80.411
1533.1000, -75.085
1533.1100,-210.000
1533.1200, -69.877
1533.1300, -72.233
1533.1400, -66.899
1533.1500, -71.219
1533.1600, -72.539
1533.1700,-210.000
1533.1800, -65.223
1533.1900, -69.463
1533.2000,-210.000
1533.2100, -79.109
1533.2200, -69.208
1533.2300,-210.000
1533.2400, -70.604
1533.2500,-210.000
1533.2600,-210.000
1533.2700, -78.415
1533.2800,-210.000
1533.2900, -78.148
1533.3000, -73.742
1533.3100, -64.445
1533.3200, -67.659
1533.3300, -68.467
1533.3400, -71.623
1533.3500,-210.000
1533.3600,-210.000
1533.3700, -72.342
1533.3800,-210.000
1533.3900, -69.289
1533.4000,-210.000
1533.4100, -66.023
1533.4200,-210.000
1533.4300, -69.158
1533.4400, -70.043
1533.4500, -74.768
1533.4600, -73.786
1533.4700,-210.000
1533.4800,-210.000
1533.4900,-210.000
1533.5000, -68.396
1533.5100, -67.497
1533.5200, -74.851
1533.5300, -71.826
1533.5400,-210.000
1533.5500, -70.453
1533.5600, -75.589
1533.5700,-210.000
1533.5800, -66.460
1533.5900, -79.603
1533.6000,-210.000
1533.6100,-210.000
1533.6200, -72.985
1533.6300,-210.000
1533.6400,-210.000
1533.6500,-210.000
1533.6600,-210.000
1533.6700, -71.312
1533.6800, -67.853
1533.6900, -69.830
1533.7000,-210.000
1533.7100,-210.000
1533.7200, -68.923
1533.7300,-210.000
1533.7400, -75.119
1533.7500,-210.000
1533.7600,-210.000
1533.7700, -76.247
1533.7800, -71.343
1533.7900, -66.257
1533.8000,-210.000
1533.8100, -72.236
1533.8200,-210.000
1533.8300,-210.000
1533.8400, -74.227
1533.8500,-210.000
1533.8600, -67.491
1533.8700,-210.000
1533.8800, -70.254
1533.8900, -68.672
1533.9000, -69.644
1533.9100, -79.369
1533.9200, -73.415
1533.9300,-210.000
1533.9400, -66.656
1533.9500,-210.000
1533.9600, -73.699
1533.9700,-210.000
1533.9800, -70.734
1533.9900, -69.754
1534.0000,-210.000
1534.0100,-210.000
1534.0200, -65.983
1534.0300, -69.384
1534.0400,-210.000
1534.0500, -69.601
1534.0600, -74.536
1534.0700,-210.000
1534.0800,-210.000
1534.0900,-210.000
1534.1000, -74.936
1534.1100, -78.279
1534.1200, -72.121
1534.1300, -65.622
1534.1400, -67.084
1534.1500, -68.372
1534.1600,-210.000
1534.1700, -67.489
1534.1800,-210.000
1534.1900, -76.279
1534.2000, -66.699
1534.2100, -67.892
1534.2200, -68.585
1534.2300, -72.366
1534.2400, -71.192
1534.2500,-210.000
1534.2600, -71.436
1534.2700, -69.698
1534.2800, -69.673
1534.2900,-210.000
1534.3000,-210.000
1534.3100, -69.906
1534.3200,-210.000
1534.3300,-210.000
1534.3400,-210.000
1534.3500,-210.000
1534.3600,-210.000
1534.3700, -71.375
1534.3800,-210.000
1534.3900, -68.078
1534.4000, -70.874
1534.4100, -70.204
1534.4200, -74.163
1534.4300, -69.003
1534.4400, -72.691
1534.4500, -63.813
1534.4600, -65.933
1534.4700,-210.000
1534.4800, -66.900
1534.4900, -69.966
1534.5000, -67.203
1534.5100,-210.000
1534.5200,-210.000
1534.5300, -63.250
1534.5400, -74.319
1534.5500, -66.139
1534.5600, -70.360
1534.5700, -67.774
1534.5800, -68.635
1534.5900, -64.198
1534.6000, -66.491
1534.6100, -71.241
1534.6200, -69.908
1534.6300, -68.848
1534.6400, -66.331
1534.6500, -68.562
1534.6600, -65.908
1534.6700, -65.029
1534.6800, -64.238
1534.6900, -68.133
1534.7000, -75.019
1534.7100, -92.959
1534.7200, -78.798
1534.7300, -66.946
1534.7400,-210.000
1534.7500, -63.038
1534.7600, -69.067
1534.7700, -66.056
1534.7800, -72.663
1534.7900, -67.576
1534.8000,-210.000
1534.8100, -66.949
1534.8200, -66.431
1534.8300,-210.000
1534.8400, -67.374
1534.8500, -63.194
1534.8600, -66.098
1534.8700, -65.535
1534.8800, -69.920
1534.8900, -66.364
1534.9000, -65.786
1534.9100, -68.441
1534.9200, -67.322
1534.9300, -65.000
1534.9400, -64.637
1534.9500, -67.745
1534.9600, -63.487
1534.9700, -64.162
1534.9800, -64.273
1534.9900, -66.841
1535.0000, -63.742
1535.0100, -64.874
1535.0200, -63.121
1535.0300, -62.871
1535.0400, -66.973
1535.0500, -64.106
1535.0600, -62.412
1535.0700, -65.770
1535.0800, -70.971
1535.0900, -64.811
1535.1000, -63.572
1535.1100, -63.842
1535.1200, -64.291
1535.1300, -65.394
1535.1400, -64.475
1535.1500, -63.422
1535.1600, -62.634
1535.1700, -62.528
1535.1800, -63.618
1535.1900, -62.205
1535.2000, -62.944
1535.2100, -63.629
1535.2200, -61.505
1535.2300, -62.460
1535.2400, -63.225
1535.2500, -63.887
1535.2600, -63.134
1535.2700, -63.489
1535.2800, -64.465
1535.2900, -64.376
1535.3000, -63.732
1535.3100, -62.038
1535.3200, -65.343
1535.3300, -62.976
1535.3400, -62.626
1535.3500, -61.854
1535.3600, -62.493
1535.3700, -60.924
1535.3800, -61.163
1535.3900, -62.120
1535.4000, -60.904
1535.4100, -63.132
1535.4200, -63.864
1535.4300, -62.337
1535.4400, -63.474
1535.4500, -61.517
1535.4600, -61.908
1535.4700, -62.896
1535.4800, -61.966
1535.4900, -63.506
1535.5000, -61.465
1535.5100, -63.854
1535.5200, -63.820
1535.5300, -61.570
1535.5400, -63.292
1535.5500, -60.025
1535.5600, -60.749
1535.5700, -61.591
1535.5800, -61.649
1535.5900, -62.882
1535.6000, -62.271
1535.6100, -62.156
1535.6200, -60.490
1535.6300, -61.190
1535.6400, -62.583
1535.6500, -61.312
1535.6600, -61.406
1535.6700, -61.510
1535.6800, -61.107
1535.6900, -62.251
1535.7000, -61.772
1535.7100, -61.035
1535.7200, -61.442
1535.7300, -61.363
1535.7400, -61.248
1535.7500, -60.953
1535.7600, -61.118
1535.7700, -60.394
1535.7800, -61.985
1535.7900, -60.849
1535.8000, -60.438
1535.8100, -60.844
1535.8200, -59.714
1535.8300, -60.897
1535.8400, -61.596
1535.8500, -61.291
1535.8600, -60.452
1535.8700, -59.803
1535.8800, -61.626
1535.8900, -60.914
1535.9000, -61.334
1535.9100, -60.274
1535.9200, -60.724
1535.9300, -60.537
1535.9400, -60.249
1535.9500, -59.471
1535.9600, -59.803
1535.9700, -61.341
1535.9800, -60.831
1535.9900, -59.858
1536.0000, -59.297
1536.0100, -60.283
1536.0200, -60.140
1536.0300, -59.528
1536.0400, -60.320
1536.0500, -60.222
1536.0600, -60.849
1536.0700, -59.446
1536.0800, -59.579
1536.0900, -59.958
1536.1000, -59.616
1536.1100, -61.888
1536.1200, -60.680
1536.1300, -60.069
1536.1400, -60.263
1536.1500, -59.842
1536.1600, -59.903
1536.1700, -58.886
1536.1800, -59.238
1536.1900, -60.906
1536.2000, -60.178
1536.2100, -59.286
1536.2200, -59.555
1536.2300, -59.301
1536.2400, -59.012
1536.2500, -60.199
1536.2600, -60.588
1536.2700, -59.255
1536.2800, -60.214
1536.2900, -59.896
1536.3000, -60.088
1536.3100, -60.683
1536.3200, -60.927
1536.3300, -60.158
1536.3400, -59.193
1536.3500, -60.045
1536.3600, -59.584
1536.3700, -60.268
1536.3800, -60.384
1536.3900, -60.195
1536.4000, -59.584
1536.4100, -60.169
1536.4200, -60.491
1536.4300, -59.291
1536.4400, -59.537
1536.4500, -59.528
1536.4600, -60.700
1536.4700, -60.965
1536.4800, -59.433
1536.4900, -60.059
1536.5000, -60.469
1536.5100, -60.173
1536.5200, -59.642
1536.5300, -59.507
1536.5400, -59.686
1536.5500, -59.507
1536.5600, -59.657
1536.5700, -59.824
1536.5800, -59.386
1536.5900, -59.434
1536.6000, -60.132
1536.6100, -59.529
1536.6200, -59.652
1536.6300, -59.976
1536.6400, -59.829
1536.6500, -59.709
1536.6600, -58.343
1536.6700, -59.729
1536.6800, -58.760
1536.6900, -59.361
1536.7000, -60.741
1536.7100, -59.719
1536.7200, -60.120
1536.7300, -61.464
1536.7400, -59.317
1536.7500, -59.447
1536.7600, -59.803
1536.7700, -59.758
1536.7800, -60.488
1536.7900, -60.021
1536.8000, -61.022
1536.8100, -62.702
1536.8200, -59.747
1536.8300, -60.853
1536.8400, -61.005
1536.8500, -60.570
1536.8600, -59.507
1536.8700, -60.418
1536.8800, -60.794
1536.8900, -61.078
1536.9000, -60.249
1536.9100, -59.244
1536.9200, -61.012
1536.9300, -60.972
1536.9400, -60.033
1536.9500, -60.155
1536.9600, -61.473
1536.9700, -60.930
1536.9800, -60.255
1536.9900, -60.795
1537.0000, -60.857
1537.0100, -60.417
1537.0200, -61.686
1537.0300, -61.140
1537.0400, -60.989
1537.0500, -60.690
1537.0600, -61.412
1537.0700, -61.592
1537.0800, -60.160
1537.0900, -60.223
1537.1000, -61.197
1537.1100, -60.127
1537.1200, -61.379
1537.1300, -61.977
1537.1400, -62.593
1537.1500, -60.997
1537.1600, -61.473
1537.1700, -61.929
1537.1800, -60.317
1537.1900, -61.134
1537.2000, -60.375
1537.2100, -60.294
1537.2200, -61.444
1537.2300, -60.349
1537.2400, -61.386
1537.2500, -61.821
1537.2600, -61.001
1537.2700, -61.885
1537.2800, -62.093
1537.2900, -62.298
1537.3000, -63.785
1537.3100, -63.128
1537.3200, -61.787
1537.3300, -63.396
1537.3400, -63.448
1537.3500, -61.706
1537.3600, -61.672
1537.3700, -61.907
1537.3800, -62.679
1537.3900, -63.004
1537.4000, -61.767
1537.4100, -61.931
1537.4200, -60.081
1537.4300, -61.268
1537.4400, -60.741
1537.4500, -61.763
1537.4600, -62.573
1537.4700, -63.055
1537.4800, -62.880
1537.4900, -61.505
1537.5000, -61.827
1537.5100, -62.488
1537.5200, -62.054
1537.5300, -61.139
1537.5400, -61.608
1537.5500, -60.874
1537.5600, -61.822
1537.5700, -62.816
1537.5800, -64.361
1537.5900, -63.605
1537.6000, -64.726
1537.6100, -62.405
1537.6200, -63.572
1537.6300, -61.789
1537.6400, -63.563
1537.6500, -60.974
1537.6600, -63.002
1537.6700, -63.035
1537.6800, -62.323
1537.6900, -61.219
1537.7000, -64.941
1537.7100, -63.107
1537.7200, -61.702
1537.7300, -61.581
1537.7400, -62.509
1537.7500, -63.002
1537.7600, -60.276
1537.7700, -62.479
1537.7800, -60.732
1537.7900, -61.602
1537.8000, -61.854
1537.8100, -61.811
1537.8200, -62.802
1537.8300, -66.688
1537.8400, -62.640
1537.8500, -61.419
1537.8600, -61.631
1537.8700, -62.392
1537.8800, -59.615
1537.8900, -60.307
1537.9000, -59.794
1537.9100, -62.778
1537.9200, -60.256
1537.9300, -61.543
1537.9400, -60.726
1537.9500, -60.293
1537.9600, -61.935
1537.9700, -61.347
1537.9800, -60.247
1537.9900, -61.797
1538.0000, -61.020
1538.0100, -60.461
1538.0200, -60.703
1538.0300, -60.594
1538.0400, -59.388
1538.0500, -59.611
1538.0600, -59.073
1538.0700, -60.179
1538.0800, -60.306
1538.0900, -59.051
1538.1000, -58.871
1538.1100, -59.083
1538.1200, -58.977
1538.1300, -59.168
1538.1400, -58.730
1538.1500, -58.958
1538.1600, -58.987
1538.1700, -58.076
1538.1800, -58.778
1538.1900, -58.779
1538.2000, -59.539
1538.2100, -60.304
1538.2200, -58.617
1538.2300, -58.644
1538.2400, -57.801
1538.2500, -58.080
1538.2600, -58.044
1538.2700, -58.272
1538.2800, -57.925
1538.2900, -57.725
1538.3000, -57.645
1538.3100, -57.894
1538.3200, -57.595
1538.3300, -57.369
1538.3400, -57.294
1538.3500, -56.934
1538.3600, -57.011
1538.3700, -57.306
1538.3800, -56.361
1538.3900, -56.649
1538.4000, -56.341
1538.4100, -56.664
1538.4200, -56.216
1538.4300, -56.516
1538.4400, -55.960
1538.4500, -56.305
1538.4600, -55.921
1538.4700, -55.823
1538.4800, -55.528
1538.4900, -55.718
1538.5000, -55.101
1538.5100, -55.439
1538.5200, -55.015
1538.5300, -55.153
1538.5400, -55.226
1538.5500, -54.921
1538.5600, -54.926
1538.5700, -55.103
1538.5800, -54.741
1538.5900, -54.406
1538.6000, -54.225
1538.6100, -54.710
1538.6200, -54.334
1538.6300, -53.946
1538.6400, -54.035
1538.6500, -54.053
1538.6600, -53.877
1538.6700, -53.820
1538.6800, -53.723
1538.6900, -53.458
1538.7000, -53.530
1538.7100, -53.453
1538.7200, -53.224
1538.7300, -53.381
1538.7400, -52.978
1538.7500, -53.020
1538.7600, -53.175
1538.7700, -52.922
1538.7800, -52.635
1538.7900, -52.376
1538.8000, -52.567
1538.8100, -52.452
1538.8200, -52.430
1538.8300, -52.280
1538.8400, -52.337
1538.8500, -52.027
1538.8600, -51.956
1538.8700, -51.783
1538.8800, -51.827
1538.8900, -51.560
1538.9000, -51.693
1538.9100, -51.496
1538.9200, -51.467
1538.9300, -51.211
1538.9400, -51.182
1538.9500, -51.091
1538.9600, -50.864
1538.9700, -50.905
1538.9800, -51.028
1538.9900, -50.798
1539.0000, -50.676
1539.0100, -50.672
1539.0200, -50.640
1539.0300, -50.498
1539.0400, -50.329
1539.0500, -50.202
1539.0600, -50.126
1539.0700, -50.157
1539.0800, -50.032
1539.0900, -49.962
1539.1000, -49.850
1539.1100, -49.616
1539.1200, -49.646
1539.1300, -49.654
1539.1400, -49.447
1539.1500, -49.457
1539.1600, -49.386
1539.1700, -49.273
1539.1800, -49.154
1539.1900, -49.085
1539.2000, -49.049
1539.2100, -48.807
1539.2200, -48.879
1539.2300, -48.683
1539.2400, -48.697
1539.2500, -48.546
1539.2600, -48.441
1539.2700, -48.397
1539.2800, -48.364
1539.2900, -48.249
1539.3000, -48.247
1539.3100, -48.167
1539.3200, -47.986
1539.3300, -47.941
1539.3400, -47.860
1539.3500, -47.762
1539.3600, -47.712
1539.3700, -47.649
1539.3800, -47.597
1539.3900, -47.480
1539.4000, -47.427
1539.4100, -47.358
1539.4200, -47.269
1539.4300, -47.170
1539.4400, -47.114
1539.4500, -47.074
1539.4600, -46.960
1539.4700, -46.900
1539.4800, -46.750
1539.4900, -46.716
1539.5000, -46.677
1539.5100, -46.603
1539.5200, -46.498
1539.5300, -46.439
1539.5400, -46.407
1539.5500, -46.358
1539.5600, -46.235
1539.5700, -46.165
1539.5800, -46.133
1539.5900, -46.055
1539.6000, -45.916
1539.6100, -45.920
1539.6200, -45.821
1539.6300, -45.754
1539.6400, -45.699
1539.6500, -45.624
1539.6600, -45.542
1539.6700, -45.486
1539.6800, -45.429
1539.6900, -45.339
1539.7000, -45.292
1539.7100, -45.265
1539.7200, -45.149
1539.7300, -45.069
1539.7400, -45.065
1539.7500, -44.990
1539.7600, -44.926
1539.7700, -44.872
1539.7800, -44.752
1539.7900, -44.686
1539.8000, -44.659
1539.8100, -44.615
1539.8200, -44.513
1539.8300, -44.477
1539.8400, -44.421
1539.8500, -44.351
1539.8600, -44.307
1539.8700, -44.266
1539.8800, -44.200
1539.8900, -44.134
1539.9000, -44.037
1539.9100, -43.969
1539.9200, -43.929
1539.9300, -43.867
1539.9400, -43.814
1539.9500, -43.761
1539.9600, -43.707
1539.9700, -43.634
1539.9800, -43.603
1539.9900, -43.541
1540.0000, -43.473
1540.0100, -43.446
1540.0200, -43.336
1540.0300, -43.285
1540.0400, -43.241
1540.0500, -43.184
1540.0600, -43.147
1540.0700, -43.089
1540.0800, -43.004
1540.0900, -42.964
1540.1000, -42.895
1540.1100, -42.848
1540.1200, -42.786
1540.1300, -42.751
1540.1400, -42.676
1540.1500, -42.625
1540.1600, -42.579
1540.1700, -42.528
1540.1800, -42.473
1540.1900, -42.409
1540.2000, -42.371
1540.2100, -42.307
1540.2200, -42.259
1540.2300, -42.183
1540.2400, -42.152
1540.2500, -42.092
1540.2600, -42.049
1540.2700, -41.996
1540.2800, -41.942
1540.2900, -41.894
1540.3000, -41.841
1540.3100, -41.789
1540.3200, -41.738
1540.3300, -41.684
1540.3400, -41.652
1540.3500, -41.591
1540.3600, -41.534
1540.3700, -41.497
1540.3800, -41.431
1540.3900, -41.378
1540.4000, -41.341
1540.4100, -41.286
1540.4200, -41.248
1540.4300, -41.202
1540.4400, -41.150
1540.4500, -41.094
1540.4600, -41.059
1540.4700, -41.003
1540.4800, -40.970
1540.4900, -40.913
1540.5000, -40.854
1540.5100, -40.810
1540.5200, -40.775
1540.5300, -40.712
1540.5400, -40.672
1540.5500, -40.633
1540.5600, -40.583
1540.5700, -40.531
1540.5800, -40.486
1540.5900, -40.445
1540.6000, -40.404
1540.6100, -40.355
1540.6200, -40.316
1540.6300, -40.270
1540.6400, -40.224
1540.6500, -40.180
1540.6600, -40.135
1540.6700, -40.098
1540.6800, -40.048
1540.6900, -40.007
1540.7000, -39.966
1540.7100, -39.924
1540.7200, -39.877
1540.7300, -39.840
1540.7400, -39.792
1540.7500, -39.754
1540.7600, -39.704
1540.7700, -39.667
1540.7800, -39.618
1540.7900, -39.581
1540.8000, -39.553
1540.8100, -39.504
1540.8200, -39.464
1540.8300, -39.424
1540.8400, -39.382
1540.8500, -39.345
1540.8600, -39.306
1540.8700, -39.263
1540.8800, -39.228
1540.8900, -39.181
1540.9000, -39.131
1540.9100, -39.092
1540.9200, -39.061
1540.9300, -39.025
1540.9400, -38.981
1540.9500, -38.942
1540.9600, -38.910
1540.9700, -38.874
1540.9800, -38.829
1540.9900, -38.804
1541.0000, -38.762
1541.0100, -38.728
1541.0200, -38.688
1541.0300, -38.652
1541.0400, -38.618
1541.0500, -38.569
1541.0600, -38.538
1541.0700, -38.498
1541.0800, -38.464
1541.0900, -38.424
1541.1000, -38.381
1541.1100, -38.351
1541.1200, -38.315
1541.1300, -38.268
1541.1400, -38.233
1541.1500, -38.196
1541.1600, -38.162
1541.1700, -38.126
1541.1800, -38.095
1541.1900, -38.065
1541.2000, -38.021
1541.2100, -37.987
1541.2200, -37.951
1541.2300, -37.911
1541.2400, -37.880
1541.2500, -37.840
1541.2600, -37.812
1541.2700, -37.761
1541.2800, -37.727
1541.2900, -37.687
1541.3000, -37.654
1541.3100, -37.612
1541.3200, -37.575
1541.3300, -37.545
1541.3400, -37.506
1541.3500, -37.471
1541.3600, -37.435
1541.3700, -37.393
1541.3800, -37.359
1541.3900, -37.318
1541.4000, -37.280
1541.4100, -37.248
1541.4200, -37.208
1541.4300, -37.169
1541.4400, -37.132
1541.4500, -37.090
1541.4600, -37.046
1541.4700, -37.008
1541.4800, -36.969
1541.4900, -36.923
1541.5000, -36.883
1541.5100, -36.848
1541.5200, -36.808
1541.5300, -36.762
1541.5400, -36.722
1541.5500, -36.696
1541.5600, -36.647
1541.5700, -36.612
1541.5800, -36.582
1541.5900, -36.545
1541.6000, -36.499
1541.6100, -36.465
1541.6200, -36.429
1541.6300, -36.383
1541.6400, -36.338
1541.6500, -36.298
1541.6600, -36.257
1541.6700, -36.208
1541.6800, -36.168
1541.6900, -36.126
1541.7000, -36.078
1541.7100, -36.036
1541.7200, -35.994
1541.7300, -35.948
1541.7400, -35.906
1541.7500, -35.872
1541.7600, -35.831
1541.7700, -35.784
1541.7800, -35.739
1541.7900, -35.704
1541.8000, -35.648
1541.8100, -35.612
1541.8200, -35.573
1541.8300, -35.519
1541.8400, -35.471
1541.8500, -35.428
1541.8600, -35.383
1541.8700, -35.322
1541.8800, -35.277
1541.8900, -35.234
1541.9000, -35.181
1541.9100, -35.122
1541.9200, -35.082
1541.9300, -35.034
1541.9400, -34.981
1541.9500, -34.923
1541.9600, -34.875
1541.9700, -34.823
1541.9800, -34.762
1541.9900, -34.713
1542.0000, -34.653
1542.0100, -34.593
1542.0200, -34.526
1542.0300, -34.470
1542.0400, -34.399
1542.0500, -34.337
1542.0600, -34.276
1542.0700, -34.205
1542.0800, -34.133
1542.0900, -34.080
1542.1000, -34.019
1542.1100, -33.950
1542.1200, -33.883
1542.1300, -33.823
1542.1400, -33.754
1542.1500, -33.686
1542.1600, -33.628
1542.1700, -33.569
1542.1800, -33.482
1542.1900, -33.409
1542.2000, -33.343
1542.2100, -33.258
1542.2200, -33.178
1542.2300, -33.106
1542.2400, -33.013
1542.2500, -32.932
1542.2600, -32.855
1542.2700, -32.776
1542.2800, -32.681
1542.2900, -32.595
1542.3000, -32.519
1542.3100, -32.425
1542.3200, -32.336
1542.3300, -32.257
1542.3400, -32.182
1542.3500, -32.085
1542.3600, -32.000
1542.3700, -31.918
1542.3800, -31.819
1542.3900, -31.724
1542.4000, -31.647
1542.4100, -31.559
1542.4200, -31.451
1542.4300, -31.352
1542.4400, -31.259
1542.4500, -31.156
1542.4600, -31.051
1542.4700, -30.969
1542.4800, -30.858
1542.4900, -30.760
1542.5000, -30.670
1542.5100, -30.575
1542.5200, -30.469
1542.5300, -30.367
1542.5400, -30.281
1542.5500, -30.163
1542.5600, -30.053
1542.5700, -29.952
1542.5800, -29.853
1542.5900, -29.729
1542.6000, -29.614
1542.6100, -29.509
1542.6200, -29.390
1542.6300, -29.257
1542.6400, -29.123
1542.6500, -29.029
1542.6600, -28.898
1542.6700, -28.781
1542.6800, -28.662
1542.6900, -28.554
1542.7000, -28.427
1542.7100, -28.311
1542.7200, -28.204
1542.7300, -28.074
1542.7400, -27.953
1542.7500, -27.839
1542.7600, -27.725
1542.7700, -27.587
1542.7800, -27.461
1542.7900, -27.343
1542.8000, -27.194
1542.8100, -27.050
1542.8200, -26.930
1542.8300, -26.797
1542.8400, -26.640
1542.8500, -26.496
1542.8600, -26.365
1542.8700, -26.217
1542.8800, -26.069
1542.8900, -25.947
1542.9000, -25.814
1542.9100, -25.663
1542.9200, -25.516
1542.9300, -25.389
1542.9400, -25.230
1542.9500, -25.083
1542.9600, -24.959
1542.9700, -24.812
1542.9800, -24.648
1542.9900, -24.483
1543.0000, -24.348
1543.0100, -24.198
1543.0200, -24.032
1543.0300, -23.871
1543.0400, -23.734
1543.0500, -23.564
1543.0600, -23.400
1543.0700, -23.270
1543.0800, -23.119
1543.0900, -22.958
1543.1000, -22.791
1543.1100, -22.657
1543.1200, -22.479
1543.1300, -22.314
1543.1400, -22.167
1543.1500, -22.007
1543.1600, -21.823
1543.1700, -21.635
1543.1800, -21.486
1543.1900, -21.287
1543.2000, -21.108
1543.2100, -20.949
1543.2200, -20.785
1543.2300, -20.591
1543.2400, -20.418
1543.2500, -20.270
1543.2600, -20.092
1543.2700, -19.934
1543.2800, -19.789
1543.2900, -19.647
1543.3000, -19.471
1543.3100, -19.319
1543.3200, -19.156
1543.3300, -19.003
1543.3400, -18.839
1543.3500, -18.690
1543.3600, -18.536
1543.3700, -18.348
1543.3800, -18.180
1543.3900, -18.031
1543.4000, -17.856
1543.4100, -17.685
1543.4200, -17.544
1543.4300, -17.393
1543.4400, -17.230
1543.4500, -17.082
1543.4600, -16.958
1543.4700, -16.830
1543.4800, -16.682
1543.4900, -16.553
1543.5000, -16.437
1543.5100, -16.309
1543.5200, -16.182
1543.5300, -16.076
1543.5400, -15.960
1543.5500, -15.832
1543.5600, -15.718
1543.5700, -15.626
1543.5800, -15.517
1543.5900, -15.416
1543.6000, -15.337
1543.6100, -15.242
1543.6200, -15.168
1543.6300, -15.107
1543.6400, -15.052
1543.6500, -14.986
1543.6600, -14.931
1543.6700, -14.884
1543.6800, -14.829
1543.6900, -14.782
1543.7000, -14.741
1543.7100, -14.696
1543.7200, -14.638
1543.7300, -14.586
1543.7400, -14.542
1543.7500, -14.497
1543.7600, -14.455
1543.7700, -14.423
1543.7800, -14.389
1543.7900, -14.363
1543.8000, -14.349
1543.8100, -14.344
1543.8200, -14.345
1543.8300, -14.350
1543.8400, -14.354
1543.8500, -14.362
1543.8600, -14.372
1543.8700, -14.382
1543.8800, -14.392
1543.8900, -14.398
1543.9000, -14.398
1543.9100, -14.392
1543.9200, -14.386
1543.9300, -14.380
1543.9400, -14.375
1543.9500, -14.370
1543.9600, -14.361
1543.9700, -14.353
1543.9800, -14.350
1543.9900, -14.354
1544.0000, -14.362
1544.0100, -14.371
1544.0200, -14.380
1544.0300, -14.388
1544.0400, -14.396
1544.0500, -14.407
1544.0600, -14.420
1544.0700, -14.431
1544.0800, -14.434
1544.0900, -14.433
1544.1000, -14.430
1544.1100, -14.429
1544.1200, -14.429
1544.1300, -14.429
1544.1400, -14.428
1544.1500, -14.426
1544.1600, -14.428
1544.1700, -14.434
1544.1800, -14.446
1544.1900, -14.461
1544.2000, -14.474
1544.2100, -14.482
1544.2200, -14.488
1544.2300, -14.497
1544.2400, -14.503
1544.2500, -14.506
1544.2600, -14.501
1544.2700, -14.489
1544.2800, -14.474
1544.2900, -14.457
1544.3000, -14.439
1544.3100, -14.424
1544.3200, -14.410
1544.3300, -14.393
1544.3400, -14.379
1544.3500, -14.373
1544.3600, -14.374
1544.3700, -14.382
1544.3800, -14.391
1544.3900, -14.399
1544.4000, -14.410
1544.4100, -14.420
1544.4200, -14.429
1544.4300, -14.439
1544.4400, -14.444
1544.4500, -14.441
1544.4600, -14.432
1544.4700, -14.417
1544.4800, -14.402
1544.4900, -14.388
1544.5000, -14.371
1544.5100, -14.351
1544.5200, -14.334
1544.5300, -14.320
1544.5400, -14.308
1544.5500, -14.304
1544.5600, -14.301
1544.5700, -14.298
1544.5800, -14.296
1544.5900, -14.295
1544.6000, -14.296
1544.6100, -14.298
1544.6200, -14.298
1544.6300, -14.294
1544.6400, -14.283
1544.6500, -14.271
1544.6600, -14.261
1544.6700, -14.251
1544.6800, -14.242
1544.6900, -14.232
1544.7000, -14.223
1544.7100, -14.214
1544.7200, -14.212
1544.7300, -14.215
1544.7400, -14.224
1544.7500, -14.230
1544.7600, -14.233
1544.7700, -14.235
1544.7800, -14.239
1544.7900, -14.241
1544.8000, -14.239
1544.8100, -14.231
1544.8200, -14.215
1544.8300, -14.199
1544.8400, -14.181
1544.8500, -14.163
1544.8600, -14.148
1544.8700, -14.133
1544.8800, -14.116
1544.8900, -14.103
1544.9000, -14.098
1544.9100, -14.100
1544.9200, -14.108
1544.9300, -14.116
1544.9400, -14.125
1544.9500, -14.136
1544.9600, -14.148
1544.9700, -14.159
1544.9800, -14.171
1544.9900, -14.176
1545.0000, -14.174
1545.0100, -14.167
1545.0200, -14.156
1545.0300, -14.146
1545.0400, -14.136
1545.0500, -14.121
1545.0600, -14.105
1545.0700, -14.090
1545.0800, -14.077
1545.0900, -14.070
1545.1000, -14.069
1545.1100, -14.068
1545.1200, -14.067
1545.1300, -14.065
1545.1400, -14.065
1545.1500, -14.069
1545.1600, -14.074
1545.1700, -14.075
1545.1800, -14.071
1545.1900, -14.061
1545.2000, -14.050
1545.2100, -14.041
1545.2200, -14.032
1545.2300, -14.023
1545.2400, -14.013
1545.2500, -14.003
1545.2600, -13.994
1545.2700, -13.991
1545.2800, -13.993
1545.2900, -13.997
1545.3000, -14.000
1545.3100, -14.000
1545.3200, -13.999
1545.3300, -13.999
1545.3400, -13.999
1545.3500, -13.996
1545.3600, -13.984
1545.3700, -13.966
1545.3800, -13.948
1545.3900, -13.924
1545.4000, -13.902
1545.4100, -13.885
1545.4200, -13.864
1545.4300, -13.840
1545.4400, -13.819
1545.4500, -13.806
1545.4600, -13.798
1545.4700, -13.797
1545.4800, -13.798
1545.4900, -13.800
1545.5000, -13.803
1545.5100, -13.807
1545.5200, -13.812
1545.5300, -13.817
1545.5400, -13.816
1545.5500, -13.809
1545.5600, -13.796
1545.5700, -13.779
1545.5800, -13.765
1545.5900, -13.745
1545.6000, -13.726
1545.6100, -13.704
1545.6200, -13.681
1545.6300, -13.659
1545.6400, -13.642
1545.6500, -13.632
1545.6600, -13.624
1545.6700, -13.616
1545.6800, -13.609
1545.6900, -13.602
1545.7000, -13.598
1545.7100, -13.595
1545.7200, -13.592
1545.7300, -13.584
1545.7400, -13.572
1545.7500, -13.559
1545.7600, -13.546
1545.7700, -13.533
1545.7800, -13.522
1545.7900, -13.506
1545.8000, -13.491
1545.8100, -13.479
1545.8200, -13.472
1545.8300, -13.470
1545.8400, -13.472
1545.8500, -13.473
1545.8600, -13.472
1545.8700, -13.469
1545.8800, -13.468
1545.8900, -13.467
1545.9000, -13.464
1545.9100, -13.455
1545.9200, -13.441
1545.9300, -13.419
1545.9400, -13.397
1545.9500, -13.378
1545.9600, -13.357
1545.9700, -13.335
1545.9800, -13.317
1545.9900, -13.295
1546.0000, -13.279
1546.0100, -13.270
1546.0200, -13.268
1546.0300, -13.269
1546.0400, -13.270
1546.0500, -13.272
1546.0600, -13.277
1546.0700, -13.283
1546.0800, -13.287
1546.0900, -13.288
1546.1000, -13.282
1546.1100, -13.271
1546.1200, -13.255
1546.1300, -13.239
1546.1400, -13.224
1546.1500, -13.205
1546.1600, -13.181
1546.1700, -13.154
1546.1800, -13.134
1546.1900, -13.114
1546.2000, -13.101
1546.2100, -13.090
1546.2200, -13.080
1546.2300, -13.070
1546.2400, -13.063
1546.2500, -13.057
1546.2600, -13.052
1546.2700, -13.046
1546.2800, -13.038
1546.2900, -13.024
1546.3000, -13.007
1546.3100, -12.993
1546.3200, -12.976
1546.3300, -12.960
1546.3400, -12.945
1546.3500, -12.928
1546.3600, -12.908
1546.3700, -12.895
1546.3800, -12.888
1546.3900, -12.883
1546.4000, -12.879
1546.4100, -12.873
1546.4200, -12.867
1546.4300, -12.861
1546.4400, -12.858
1546.4500, -12.851
1546.4600, -12.841
1546.4700, -12.825
1546.4800, -12.805
1546.4900, -12.779
1546.5000, -12.757
1546.5100, -12.737
1546.5200, -12.712
1546.5300, -12.688
1546.5400, -12.669
1546.5500, -12.652
1546.5600, -12.640
1546.5700, -12.636
1546.5800, -12.635
1546.5900, -12.635
1546.6000, -12.636
1546.6100, -12.639
1546.6200, -12.645
1546.6300, -12.651
1546.6400, -12.653
1546.6500, -12.650
1546.6600, -12.639
1546.6700, -12.625
1546.6800, -12.612
1546.6900, -12.596
1546.7000, -12.578
1546.7100, -12.559
1546.7200, -12.538
1546.7300, -12.516
1546.7400, -12.498
1546.7500, -12.488
1546.7600, -12.478
1546.7700, -12.471
1546.7800, -12.464
1546.7900, -12.457
1546.8000, -12.454
1546.8100, -12.453
1546.8200, -12.452
1546.8300, -12.446
1546.8400, -12.436
1546.8500, -12.424
1546.8600, -12.409
1546.8700, -12.396
1546.8800, -12.386
1546.8900, -12.373
1546.9000, -12.355
1546.9100, -12.338
1546.9200, -12.327
1546.9300, -12.318
1546.9400, -12.314
1546.9500, -12.311
1546.9600, -12.306
1546.9700, -12.300
1546.9800, -12.295
1546.9900, -12.292
1547.0000, -12.286
1547.0100, -12.278
1547.0200, -12.266
1547.0300, -12.244
1547.0400, -12.222
1547.0500, -12.202
1547.0600, -12.181
1547.0700, -12.157
1547.0800, -12.134
1547.0900, -12.112
1547.1000, -12.090
1547.1100, -12.074
1547.1200, -12.067
1547.1300, -12.062
1547.1400, -12.059
1547.1500, -12.057
1547.1600, -12.056
1547.1700, -12.059
1547.1800, -12.063
1547.1900, -12.064
1547.2000, -12.062
1547.2100, -12.053
1547.2200, -12.040
1547.2300, -12.028
1547.2400, -12.011
1547.2500, -11.993
1547.2600, -11.975
1547.2700, -11.951
1547.2800, -11.930
1547.2900, -11.913
1547.3000, -11.900
1547.3100, -11.889
1547.3200, -11.881
1547.3300, -11.874
1547.3400, -11.868
1547.3500, -11.867
1547.3600, -11.867
1547.3700, -11.868
1547.3800, -11.867
1547.3900, -11.861
1547.4000, -11.853
1547.4100, -11.842
1547.4200, -11.833
1547.4300, -11.825
1547.4400, -11.814
1547.4500, -11.801
1547.4600, -11.789
1547.4700, -11.780
1547.4800, -11.776
1547.4900, -11.775
1547.5000, -11.776
1547.5100, -11.776
1547.5200, -11.775
1547.5300, -11.775
1547.5400, -11.777
1547.5500, -11.779
1547.5600, -11.778
1547.5700, -11.771
1547.5800, -11.758
1547.5900, -11.742
1547.6000, -11.728
1547.6100, -11.712
1547.6200, -11.695
1547.6300, -11.679
1547.6400, -11.657
1547.6500, -11.640
1547.6600, -11.631
1547.6700, -11.626
1547.6800, -11.625
1547.6900, -11.625
1547.7000, -11.627
1547.7100, -11.629
1547.7200, -11.633
1547.7300, -11.638
1547.7400, -11.644
1547.7500, -11.645
1547.7600, -11.640
1547.7700, -11.630
1547.7800, -11.618
1547.7900, -11.607
1547.8000, -11.590
1547.8100, -11.571
1547.8200, -11.549
1547.8300, -11.525
1547.8400, -11.505
1547.8500, -11.493
1547.8600, -11.480
1547.8700, -11.471
1547.8800, -11.463
1547.8900, -11.455
1547.9000, -11.449
1547.9100, -11.445
1547.9200, -11.444
1547.9300, -11.439
1547.9400, -11.430
1547.9500, -11.420
1547.9600, -11.407
1547.9700, -11.395
1547.9800, -11.385
1547.9900, -11.370
1548.0000, -11.354
1548.0100, -11.339
1548.0200, -11.325
1548.0300, -11.315
1548.0400, -11.309
1548.0500, -11.306
1548.0600, -11.301
1548.0700, -11.296
1548.0800, -11.293
1548.0900, -11.292
1548.1000, -11.292
1548.1100, -11.291
1548.1200, -11.284
1548.1300, -11.272
1548.1400, -11.260
1548.1500, -11.243
1548.1600, -11.228
1548.1700, -11.213
1548.1800, -11.196
1548.1900, -11.175
1548.2000, -11.159
1548.2100, -11.148
1548.2200, -11.141
1548.2300, -11.139
1548.2400, -11.139
1548.2500, -11.140
1548.2600, -11.144
1548.2700, -11.150
1548.2800, -11.160
1548.2900, -11.169
1548.3000, -11.174
1548.3100, -11.174
1548.3200, -11.169
1548.3300, -11.163
1548.3400, -11.157
1548.3500, -11.147
1548.3600, -11.135
1548.3700, -11.120
1548.3800, -11.102
1548.3900, -11.086
1548.4000, -11.077
1548.4100, -11.069
1548.4200, -11.065
1548.4300, -11.061
1548.4400, -11.056
1548.4500, -11.055
1548.4600, -11.056
1548.4700, -11.060
1548.4800, -11.063
1548.4900, -11.062
1548.5000, -11.058
1548.5100, -11.052
1548.5200, -11.045
1548.5300, -11.040
1548.5400, -11.032
1548.5500, -11.023
1548.5600, -11.012
1548.5700, -10.999
1548.5800, -10.989
1548.5900, -10.983
1548.6000, -10.981
1548.6100, -10.979
1548.6200, -10.977
1548.6300, -10.974
1548.6400, -10.973
1548.6500, -10.973
1548.6600, -10.974
1548.6700, -10.971
1548.6800, -10.963
1548.6900, -10.952
1548.7000, -10.935
1548.7100, -10.921
1548.7200, -10.906
1548.7300, -10.889
1548.7400, -10.867
1548.7500, -10.847
1548.7600, -10.831
1548.7700, -10.819
1548.7800, -10.812
1548.7900, -10.809
1548.8000, -10.807
1548.8100, -10.807
1548.8200, -10.809
1548.8300, -10.814
1548.8400, -10.821
1548.8500, -10.826
1548.8600, -10.826
1548.8700, -10.822
1548.8800, -10.815
1548.8900, -10.807
1548.9000, -10.796
1548.9100, -10.784
1548.9200, -10.768
1548.9300, -10.751
1548.9400, -10.731
1548.9500, -10.717
1548.9600, -10.707
1548.9700, -10.698
1548.9800, -10.691
1548.9900, -10.686
1549.0000, -10.681
1549.0100, -10.681
1549.0200, -10.683
1549.0300, -10.686
1549.0400, -10.688
1549.0500, -10.686
1549.0600, -10.682
1549.0700, -10.678
1549.0800, -10.674
1549.0900, -10.668
1549.1000, -10.660
1549.1100, -10.650
1549.1200, -10.641
1549.1300, -10.633
1549.1400, -10.630
1549.1500, -10.630
1549.1600, -10.630
1549.1700, -10.630
1549.1800, -10.630
1549.1900, -10.631
1549.2000, -10.635
1549.2100, -10.638
1549.2200, -10.639
1549.2300, -10.634
1549.2400, -10.625
1549.2500, -10.616
1549.2600, -10.605
1549.2700, -10.591
1549.2800, -10.577
1549.2900, -10.562
1549.3000, -10.543
1549.3100, -10.528
1549.3200, -10.518
1549.3300, -10.512
1549.3400, -10.509
1549.3500, -10.508
1549.3600, -10.507
1549.3700, -10.509
1549.3800, -10.515
1549.3900, -10.521
1549.4000, -10.528
1549.4100, -10.530
1549.4200, -10.526
1549.4300, -10.520
1549.4400, -10.512
1549.4500, -10.504
1549.4600, -10.491
1549.4700, -10.474
1549.4800, -10.457
1549.4900, -10.437
1549.5000, -10.417
1549.5100, -10.402
1549.5200, -10.390
1549.5300, -10.378
1549.5400, -10.366
1549.5500, -10.358
1549.5600, -10.350
1549.5700, -10.348
1549.5800, -10.348
1549.5900, -10.347
1549.6000, -10.343
1549.6100, -10.336
1549.6200, -10.329
1549.6300, -10.321
1549.6400, -10.312
1549.6500, -10.303
1549.6600, -10.290
1549.6700, -10.277
1549.6800, -10.266
1549.6900, -10.255
1549.7000, -10.248
1549.7100, -10.244
1549.7200, -10.238
1549.7300, -10.234
1549.7400, -10.232
1549.7500, -10.232
1549.7600, -10.234
1549.7700, -10.235
1549.7800, -10.233
1549.7900, -10.225
1549.8000, -10.214
1549.8100, -10.203
1549.8200, -10.191
1549.8300, -10.178
1549.8400, -10.164
1549.8500, -10.147
1549.8600, -10.131
1549.8700, -10.120
1549.8800, -10.112
1549.8900, -10.108
1549.9000, -10.106
1549.9100, -10.106
1549.9200, -10.108
1549.9300, -10.113
1549.9400, -10.121
1549.9500, -10.132
1549.9600, -10.141
1549.9700, -10.145
1549.9800, -10.145
1549.9900, -10.143
1550.0000, -10.139
1550.0100, -10.132
1550.0200, -10.122
1550.0300, -10.111
1550.0400, -10.093
1550.0500, -10.079
1550.0600, -10.068
1550.0700, -10.058
1550.0800, -10.051
1550.0900, -10.046
1550.1000, -10.041
1550.1100, -10.037
1550.1200, -10.038
1550.1300, -10.041
1550.1400, -10.045
1550.1500, -10.047
1550.1600, -10.047
1550.1700, -10.044
1550.1800, -10.041
1550.1900, -10.038
1550.2000, -10.032
1550.2100, -10.023
1550.2200, -10.013
1550.2300, -10.002
1550.2400,  -9.992
1550.2500,  -9.987
1550.2600,  -9.984
1550.2700,  -9.980
1550.2800,  -9.977
1550.2900,  -9.975
1550.3000,  -9.974
1550.3100,  -9.976
1550.3200,  -9.978
1550.3300,  -9.977
1550.3400,  -9.973
1550.3500,  -9.965
1550.3600,  -9.954
1550.3700,  -9.942
1550.3800,  -9.933
1550.3900,  -9.918
1550.4000,  -9.902
1550.4100,  -9.885
1550.4200,  -9.869
1550.4300,  -9.856
1550.4400,  -9.848
1550.4500,  -9.844
1550.4600,  -9.841
1550.4700,  -9.839
1550.4800,  -9.841
1550.4900,  -9.845
1550.5000,  -9.853
1550.5100,  -9.859
1550.5200,  -9.863
1550.5300,  -9.864
1550.5400,  -9.862
1550.5500,  -9.857
1550.5600,  -9.851
1550.5700,  -9.843
1550.5800,  -9.830
1550.5900,  -9.813
1550.6000,  -9.798
1550.6100,  -9.782
1550.6200,  -9.770
1550.6300,  -9.762
1550.6400,  -9.754
1550.6500,  -9.745
1550.6600,  -9.739
1550.6700,  -9.737
1550.6800,  -9.739
1550.6900,  -9.742
1550.7000,  -9.745
1550.7100,  -9.744
1550.7200,  -9.742
1550.7300,  -9.739
1550.7400,  -9.735
1550.7500,  -9.731
1550.7600,  -9.725
1550.7700,  -9.715
1550.7800,  -9.704
1550.7900,  -9.694
1550.8000,  -9.687
1550.8100,  -9.682
1550.8200,  -9.680
1550.8300,  -9.677
1550.8400,  -9.674
1550.8500,  -9.673
1550.8600,  -9.674
1550.8700,  -9.677
1550.8800,  -9.680
1550.8900,  -9.678
1550.9000,  -9.674
1550.9100,  -9.667
1550.9200,  -9.658
1550.9300,  -9.649
1550.9400,  -9.638
1550.9500,  -9.627
1550.9600,  -9.610
1550.9700,  -9.593
1550.9800,  -9.581
1550.9900,  -9.570
1551.0000,  -9.564
1551.0100,  -9.560
1551.0200,  -9.557
1551.0300,  -9.556
1551.0400,  -9.557
1551.0500,  -9.564
1551.0600,  -9.572
1551.0700,  -9.578
1551.0800,  -9.583
1551.0900,  -9.582
1551.1000,  -9.580
1551.1100,  -9.576
1551.1200,  -9.572
1551.1300,  -9.565
1551.1400,  -9.551
1551.1500,  -9.536
1551.1600,  -9.522
1551.1700,  -9.507
1551.1800,  -9.496
1551.1900,  -9.488
1551.2000,  -9.480
1551.2100,  -9.473
1551.2200,  -9.469
1551.2300,  -9.469
1551.2400,  -9.471
1551.2500,  -9.476
1551.2600,  -9.477
1551.2700,  -9.477
1551.2800,  -9.475
1551.2900,  -9.473
1551.3000,  -9.472
1551.3100,  -9.470
1551.3200,  -9.465
1551.3300,  -9.456
1551.3400,  -9.446
1551.3500,  -9.440
1551.3600,  -9.435
1551.3700,  -9.434
1551.3800,  -9.433
1551.3900,  -9.432
1551.4000,  -9.432
1551.4100,  -9.434
1551.4200,  -9.438
1551.4300,  -9.444
1551.4400,  -9.448
1551.4500,  -9.450
1551.4600,  -9.448
1551.4700,  -9.445
1551.4800,  -9.442
1551.4900,  -9.436
1551.5000,  -9.428
1551.5100,  -9.415
1551.5200,  -9.402
1551.5300,  -9.391
1551.5400,  -9.383
1551.5500,  -9.379
1551.5600,  -9.376
1551.5700,  -9.375
1551.5800,  -9.376
1551.5900,  -9.380
1551.6000,  -9.387
1551.6100,  -9.399
1551.6200,  -9.410
1551.6300,  -9.417
1551.6400,  -9.423
1551.6500,  -9.425
1551.6600,  -9.426
1551.6700,  -9.426
1551.6800,  -9.424
1551.6900,  -9.417
1551.7000,  -9.407
1551.7100,  -9.392
1551.7200,  -9.380
1551.7300,  -9.370
1551.7400,  -9.362
1551.7500,  -9.356
1551.7600,  -9.350
1551.7700,  -9.345
1551.7800,  -9.342
1551.7900,  -9.343
1551.8000,  -9.347
1551.8100,  -9.351
1551.8200,  -9.353
1551.8300,  -9.353
1551.8400,  -9.353
1551.8500,  -9.353
1551.8600,  -9.352
1551.8700,  -9.349
1551.8800,  -9.341
1551.8900,  -9.332
1551.9000,  -9.323
1551.9100,  -9.317
1551.9200,  -9.314
1551.9300,  -9.312
1551.9400,  -9.311
1551.9500,  -9.309
1551.9600,  -9.309
1551.9700,  -9.312
1551.9800,  -9.316
1551.9900,  -9.321
1552.0000,  -9.323
1552.0100,  -9.321
1552.0200,  -9.316
1552.0300,  -9.311
1552.0400,  -9.305
1552.0500,  -9.299
1552.0600,  -9.288
1552.0700,  -9.275
1552.0800,  -9.263
1552.0900,  -9.250
1552.1000,  -9.242
1552.1100,  -9.238
1552.1200,  -9.235
1552.1300,  -9.233
1552.1400,  -9.235
1552.1500,  -9.241
1552.1600,  -9.252
1552.1700,  -9.264
1552.1800,  -9.274
1552.1900,  -9.283
1552.2000,  -9.289
1552.2100,  -9.293
1552.2200,  -9.297
1552.2300,  -9.299
1552.2400,  -9.298
1552.2500,  -9.290
1552.2600,  -9.279
1552.2700,  -9.269
1552.2800,  -9.259
1552.2900,  -9.252
1552.3000,  -9.247
1552.3100,  -9.242
1552.3200,  -9.239
1552.3300,  -9.238
1552.3400,  -9.241
1552.3500,  -9.248
1552.3600,  -9.256
1552.3700,  -9.261
1552.3800,  -9.265
1552.3900,  -9.269
1552.4000,  -9.273
1552.4100,  -9.277
1552.4200,  -9.279
1552.4300,  -9.278
1552.4400,  -9.273
1552.4500,  -9.268
1552.4600,  -9.264
1552.4700,  -9.262
1552.4800,  -9.262
1552.4900,  -9.262
1552.5000,  -9.263
1552.5100,  -9.263
1552.5200,  -9.266
1552.5300,  -9.270
1552.5400,  -9.278
1552.5500,  -9.286
1552.5600,  -9.290
1552.5700,  -9.292
1552.5800,  -9.291
1552.5900,  -9.290
1552.6000,  -9.287
1552.6100,  -9.282
1552.6200,  -9.275
1552.6300,  -9.263
1552.6400,  -9.251
1552.6500,  -9.243
1552.6600,  -9.235
1552.6700,  -9.230
1552.6800,  -9.228
1552.6900,  -9.226
1552.7000,  -9.227
1552.7100,  -9.232
1552.7200,  -9.242
1552.7300,  -9.255
1552.7400,  -9.265
1552.7500,  -9.274
1552.7600,  -9.280
1552.7700,  -9.284
1552.7800,  -9.287
1552.7900,  -9.288
1552.8000,  -9.285
1552.8100,  -9.278
1552.8200,  -9.266
1552.8300,  -9.254
1552.8400,  -9.245
1552.8500,  -9.236
1552.8600,  -9.228
1552.8700,  -9.226
1552.8800,  -9.218
1552.8900,  -9.213
1552.9000,  -9.215
1552.9100,  -9.221
1552.9200,  -9.227
1552.9300,  -9.234
1552.9400,  -9.238
1552.9500,  -9.242
1552.9600,  -9.245
1552.9700,  -9.251
1552.9800,  -9.253
1552.9900,  -9.250
1553.0000,  -9.245
1553.0100,  -9.238
1553.0200,  -9.234
1553.0300,  -9.232
1553.0400,  -9.232
1553.0500,  -9.231
1553.0600,  -9.229
1553.0700,  -9.229
1553.0800,  -9.231
1553.0900,  -9.237
1553.1000,  -9.245
1553.1100,  -9.251
1553.1200,  -9.255
1553.1300,  -9.256
1553.1400,  -9.255
1553.1500,  -9.255
1553.1600,  -9.253
1553.1700,  -9.247
1553.1800,  -9.239
1553.1900,  -9.226
1553.2000,  -9.217
1553.2100,  -9.210
1553.2200,  -9.205
1553.2300,  -9.203
1553.2400,  -9.201
1553.2500,  -9.200
1553.2600,  -9.204
1553.2700,  -9.212
1553.2800,  -9.223
1553.2900,  -9.236
1553.3000,  -9.245
1553.3100,  -9.253
1553.3200,  -9.260
1553.3300,  -9.264
1553.3400,  -9.267
1553.3500,  -9.268
1553.3600,  -9.264
1553.3700,  -9.256
1553.3800,  -9.244
1553.3900,  -9.233
1553.4000,  -9.226
1553.4100,  -9.217
1553.4200,  -9.209
1553.4300,  -9.203
1553.4400,  -9.199
1553.4500,  -9.200
1553.4600,  -9.203
1553.4700,  -9.210
1553.4800,  -9.218
1553.4900,  -9.223
1553.5000,  -9.227
1553.5100,  -9.232
1553.5200,  -9.237
1553.5300,  -9.243
1553.5400,  -9.245
1553.5500,  -9.243
1553.5600,  -9.237
1553.5700,  -9.231
1553.5800,  -9.229
1553.5900,  -9.228
1553.6000,  -9.227
1553.6100,  -9.227
1553.6200,  -9.227
1553.6300,  -9.230
1553.6400,  -9.234
1553.6500,  -9.243
1553.6600,  -9.252
1553.6700,  -9.259
1553.6800,  -9.263
1553.6900,  -9.266
1553.7000,  -9.268
1553.7100,  -9.269
1553.7200,  -9.268
1553.7300,  -9.264
1553.7400,  -9.256
1553.7500,  -9.247
1553.7600,  -9.241
1553.7700,  -9.238
1553.7800,  -9.235
1553.7900,  -9.234
1553.8000,  -9.234
1553.8100,  -9.237
1553.8200,  -9.243
1553.8300,  -9.254
1553.8400,  -9.269
1553.8500,  -9.282
1553.8600,  -9.295
1553.8700,  -9.306
1553.8800,  -9.315
1553.8900,  -9.325
1553.9000,  -9.331
1553.9100,  -9.333
1553.9200,  -9.331
1553.9300,  -9.324
1553.9400,  -9.317
1553.9500,  -9.308
1553.9600,  -9.303
1553.9700,  -9.298
1553.9800,  -9.291
1553.9900,  -9.287
1554.0000,  -9.285
1554.0100,  -9.287
1554.0200,  -9.293
1554.0300,  -9.301
1554.0400,  -9.310
1554.0500,  -9.318
1554.0600,  -9.324
1554.0700,  -9.333
1554.0800,  -9.341
1554.0900,  -9.346
1554.1000,  -9.349
1554.1100,  -9.348
1554.1200,  -9.344
1554.1300,  -9.341
1554.1400,  -9.339
1554.1500,  -9.339
1554.1600,  -9.339
1554.1700,  -9.338
1554.1800,  -9.339
1554.1900,  -9.343
1554.2000,  -9.352
1554.2100,  -9.360
1554.2200,  -9.371
1554.2300,  -9.378
1554.2400,  -9.383
1554.2500,  -9.388
1554.2600,  -9.392
1554.2700,  -9.395
1554.2800,  -9.395
1554.2900,  -9.392
1554.3000,  -9.385
1554.3100,  -9.375
1554.3200,  -9.369
1554.3300,  -9.366
1554.3400,  -9.365
1554.3500,  -9.364
1554.3600,  -9.364
1554.3700,  -9.369
1554.3800,  -9.378
1554.3900,  -9.391
1554.4000,  -9.407
1554.4100,  -9.424
1554.4200,  -9.434
1554.4300,  -9.448
1554.4400,  -9.461
1554.4500,  -9.471
1554.4600,  -9.481
1554.4700,  -9.486
1554.4800,  -9.484
1554.4900,  -9.479
1554.5000,  -9.474
1554.5100,  -9.472
1554.5200,  -9.470
1554.5300,  -9.467
1554.5400,  -9.465
1554.5500,  -9.464
1554.5600,  -9.467
1554.5700,  -9.474
1554.5800,  -9.485
1554.5900,  -9.498
1554.6000,  -9.508
1554.6100,  -9.518
1554.6200,  -9.529
1554.6300,  -9.542
1554.6400,  -9.555
1554.6500,  -9.566
1554.6600,  -9.573
1554.6700,  -9.574
1554.6800,  -9.575
1554.6900,  -9.576
1554.7000,  -9.579
1554.7100,  -9.582
1554.7200,  -9.585
1554.7300,  -9.586
1554.7400,  -9.591
1554.7500,  -9.599
1554.7600,  -9.610
1554.7700,  -9.626
1554.7800,  -9.638
1554.7900,  -9.648
1554.8000,  -9.657
1554.8100,  -9.665
1554.8200,  -9.673
1554.8300,  -9.680
1554.8400,  -9.683
1554.8500,  -9.682
1554.8600,  -9.678
1554.8700,  -9.672
1554.8800,  -9.668
1554.8900,  -9.666
1554.9000,  -9.665
1554.9100,  -9.665
1554.9200,  -9.665
1554.9300,  -9.671
1554.9400,  -9.682
1554.9500,  -9.695
1554.9600,  -9.714
1554.9700,  -9.730
1554.9800,  -9.743
1554.9900,  -9.758
1555.0000,  -9.771
1555.0100,  -9.783
1555.0200,  -9.794
1555.0300,  -9.799
1555.0400,  -9.798
1555.0500,  -9.794
1555.0600,  -9.788
1555.0700,  -9.783
1555.0800,  -9.779
1555.0900,  -9.772
1555.1000,  -9.766
1555.1100,  -9.762
1555.1200,  -9.760
1555.1300,  -9.764
1555.1400,  -9.773
1555.1500,  -9.782
1555.1600,  -9.790
1555.1700,  -9.798
1555.1800,  -9.808
1555.1900,  -9.818
1555.2000,  -9.827
1555.2100,  -9.835
1555.2200,  -9.838
1555.2300,  -9.838
1555.2400,  -9.836
1555.2500,  -9.833
1555.2600,  -9.830
1555.2700,  -9.830
1555.2800,  -9.829
1555.2900,  -9.829
1555.3000,  -9.829
1555.3100,  -9.832
1555.3200,  -9.838
1555.3300,  -9.847
1555.3400,  -9.855
1555.3500,  -9.859
1555.3600,  -9.865
1555.3700,  -9.869
1555.3800,  -9.872
1555.3900,  -9.875
1555.4000,  -9.873
1555.4100,  -9.869
1555.4200,  -9.858
1555.4300,  -9.849
1555.4400,  -9.842
1555.4500,  -9.836
1555.4600,  -9.830
1555.4700,  -9.826
1555.4800,  -9.821
1555.4900,  -9.821
1555.5000,  -9.826
1555.5100,  -9.834
1555.5200,  -9.847
1555.5300,  -9.860
1555.5400,  -9.873
1555.5500,  -9.886
1555.5600,  -9.899
1555.5700,  -9.912
1555.5800,  -9.924
1555.5900,  -9.929
1555.6000,  -9.929
1555.6100,  -9.929
1555.6200,  -9.929
1555.6300,  -9.929
1555.6400,  -9.931
1555.6500,  -9.933
1555.6600,  -9.934
1555.6700,  -9.939
1555.6800,  -9.948
1555.6900,  -9.965
1555.7000,  -9.990
1555.7100, -10.020
1555.7200, -10.046
1555.7300, -10.084
1555.7400, -10.120
1555.7500, -10.156
1555.7600, -10.202
1555.7700, -10.246
1555.7800, -10.285
1555.7900, -10.332
1555.8000, -10.379
1555.8100, -10.418
1555.8200, -10.478
1555.8300, -10.531
1555.8400, -10.585
1555.8500, -10.651
1555.8600, -10.724
1555.8700, -10.792
1555.8800, -10.884
1555.8900, -10.980
1555.9000, -11.064
1555.9100, -11.173
1555.9200, -11.277
1555.9300, -11.379
1555.9400, -11.501
1555.9500, -11.628
1555.9600, -11.731
1555.9700, -11.864
1555.9800, -11.988
1555.9900, -12.101
1556.0000, -12.241
1556.0100, -12.382
1556.0200, -12.510
1556.0300, -12.662
1556.0400, -12.818
1556.0500, -12.954
1556.0600, -13.156
1556.0700, -13.312
1556.0800, -13.473
1556.0900, -13.671
1556.1000, -13.865
1556.1100, -14.029
1556.1200, -14.242
1556.1300, -14.439
1556.1400, -14.605
1556.1500, -14.824
1556.1600, -15.006
1556.1700, -15.182
1556.1800, -15.377
1556.1900, -15.580
1556.2000, -15.741
1556.2100, -15.951
1556.2200, -16.142
1556.2300, -16.317
1556.2400, -16.527
1556.2500, -16.732
1556.2600, -16.919
1556.2700, -17.145
1556.2800, -17.364
1556.2900, -17.541
1556.3000, -17.783
1556.3100, -17.993
1556.3200, -18.193
1556.3300, -18.422
1556.3400, -18.639
1556.3500, -18.827
1556.3600, -19.042
1556.3700, -19.253
1556.3800, -19.427
1556.3900, -19.650
1556.4000, -19.848
1556.4100, -20.033
1556.4200, -20.241
1556.4300, -20.457
1556.4400, -20.629
1556.4500, -20.857
1556.4600, -21.067
1556.4700, -21.246
1556.4800, -21.471
1556.4900, -21.671
1556.5000, -21.856
1556.5100, -22.070
1556.5200, -22.277
1556.5300, -22.443
1556.5400, -22.647
1556.5500, -22.839
1556.5600, -23.016
1556.5700, -23.214
1556.5800, -23.394
1556.5900, -23.555
1556.6000, -23.746
1556.6100, -23.934
1556.6200, -24.096
1556.6300, -24.309
1556.6400, -24.502
1556.6500, -24.701
1556.6600, -24.890
1556.6700, -25.061
1556.6800, -25.270
1556.6900, -25.462
1556.7000, -25.634
1556.7100, -25.827
1556.7200, -26.015
1556.7300, -26.159
1556.7400, -26.350
1556.7500, -26.513
1556.7600, -26.667
1556.7700, -26.841
1556.7800, -27.013
1556.7900, -27.151
1556.8000, -27.325
1556.8100, -27.494
1556.8200, -27.632
1556.8300, -27.818
1556.8400, -27.984
1556.8500, -28.136
1556.8600, -28.309
1556.8700, -28.487
1556.8800, -28.632
1556.8900, -28.822
1556.9000, -28.987
1556.9100, -29.131
1556.9200, -29.302
1556.9300, -29.455
1556.9400, -29.600
1556.9500, -29.761
1556.9600, -29.921
1556.9700, -30.045
1556.9800, -30.214
1556.9900, -30.363
1557.0000, -30.495
1557.0100, -30.662
1557.0200, -30.814
1557.0300, -30.972
1557.0400, -31.126
1557.0500, -31.259
1557.0600, -31.426
1557.0700, -31.579
1557.0800, -31.706
1557.0900, -31.859
1557.1000, -31.991
1557.1100, -32.121
1557.1200, -32.266
1557.1300, -32.403
1557.1400, -32.520
1557.1500, -32.661
1557.1600, -32.888
1557.1700, -32.974
1557.1800, -33.056
1557.1900, -33.177
1557.2000, -33.307
1557.2100, -33.442
1557.2200, -33.594
1557.2300, -33.707
1557.2400, -33.856
1557.2500, -33.992
1557.2600, -34.109
1557.2700, -34.253
1557.2800, -34.386
1557.2900, -34.500
1557.3000, -34.638
1557.3100, -34.767
1557.3200, -34.865
1557.3300, -35.003
1557.3400, -35.109
1557.3500, -35.218
1557.3600, -35.341
1557.3700, -35.459
1557.3800, -35.555
1557.3900, -35.680
1557.4000, -35.802
1557.4100, -35.914
1557.4200, -36.039
1557.4300, -36.145
1557.4400, -36.271
1557.4500, -36.388
1557.4600, -36.502
1557.4700, -36.626
1557.4800, -36.741
1557.4900, -36.838
1557.5000, -36.958
1557.5100, -37.073
1557.5200, -37.163
1557.5300, -37.280
1557.5400, -37.387
1557.5500, -37.484
1557.5600, -37.591
1557.5700, -37.706
1557.5800, -37.793
1557.5900, -37.913
1557.6000, -38.021
1557.6100, -38.109
1557.6200, -38.225
1557.6300, -38.336
1557.6400, -38.419
1557.6500, -38.534
1557.6600, -38.626
1557.6700, -38.719
1557.6800, -38.817
1557.6900, -38.923
1557.7000, -39.006
1557.7100, -39.097
1557.7200, -39.190
1557.7300, -39.267
1557.7400, -39.363
1557.7500, -39.461
1557.7600, -39.544
1557.7700, -39.636
1557.7800, -39.718
1557.7900, -39.817
1557.8000, -39.910
1557.8100, -40.015
1557.8200, -40.114
1557.8300, -40.194
1557.8400, -40.286
1557.8500, -40.389
1557.8600, -40.485
1557.8700, -40.559
1557.8800, -40.659
1557.8900, -40.750
1557.9000, -40.818
1557.9100, -40.908
1557.9200, -40.976
1557.9300, -41.040
1557.9400, -41.131
1557.9500, -41.202
1557.9600, -41.275
1557.9700, -41.365
1557.9800, -41.437
1557.9900, -41.521
1558.0000, -41.607
1558.0100, -41.720
1558.0200, -41.796
1558.0300, -41.884
1558.0400, -41.962
1558.0500, -42.022
1558.0600, -42.127
1558.0700, -42.196
1558.0800, -42.287
1558.0900, -42.358
1558.1000, -42.436
1558.1100, -42.502
1558.1200, -42.564
1558.1300, -42.650
1558.1400, -42.745
1558.1500, -42.815
1558.1600, -42.868
1558.1700, -42.936
1558.1800, -43.035
1558.1900, -43.102
1558.2000, -43.176
1558.2100, -43.277
1558.2200, -43.343
1558.2300, -43.425
1558.2400, -43.497
1558.2500, -43.558
1558.2600, -43.646
1558.2700, -43.722
1558.2800, -43.749
1558.2900, -43.834
1558.3000, -43.946
1558.3100, -43.976
1558.3200, -44.056
1558.3300, -44.092
1558.3400, -44.170
1558.3500, -44.222
1558.3600, -44.295
1558.3700, -44.353
1558.3800, -44.453
1558.3900, -44.518
1558.4000, -44.599
1558.4100, -44.649
1558.4200, -44.681
1558.4300, -44.775
1558.4400, -44.833
1558.4500, -44.922
1558.4600, -44.974
1558.4700, -45.024
1558.4800, -45.073
1558.4900, -45.142
1558.5000, -45.180
1558.5100, -45.257
1558.5200, -45.330
1558.5300, -45.365
1558.5400, -45.411
1558.5500, -45.452
1558.5600, -45.506
1558.5700, -45.593
1558.5800, -45.670
1558.5900, -45.683
1558.6000, -45.752
1558.6100, -45.775
1558.6200, -45.829
1558.6300, -45.863
1558.6400, -45.940
1558.6500, -46.010
1558.6600, -46.081
1558.6700, -46.096
1558.6800, -46.117
1558.6900, -46.228
1558.7000, -46.271
1558.7100, -46.291
1558.7200, -46.340
1558.7300, -46.329
1558.7400, -46.414
1558.7500, -46.421
1558.7600, -46.465
1558.7700, -46.504
1558.7800, -46.582
1558.7900, -46.625
1558.8000, -46.711
1558.8100, -46.756
1558.8200, -46.808
1558.8300, -46.769
1558.8400, -46.800
1558.8500, -46.912
1558.8600, -46.888
1558.8700, -46.941
1558.8800, -47.002
1558.8900, -47.017
1558.9000, -47.087
1558.9100, -47.099
1558.9200, -47.127
1558.9300, -47.181
1558.9400, -47.202
1558.9500, -47.227
1558.9600, -47.302
1558.9700, -47.333
1558.9800, -47.394
1558.9900, -47.353
1559.0000, -47.497
1559.0100, -47.486
1559.0200, -47.469
1559.0300, -47.521
1559.0400, -47.594
1559.0500, -47.643
1559.0600, -47.682
1559.0700, -47.691
1559.0800, -47.741
1559.0900, -47.740
1559.1000, -47.761
1559.1100, -47.781
1559.1200, -47.788
1559.1300, -47.746
1559.1400, -47.837
1559.1500, -47.857
1559.1600, -47.948
1559.1700, -47.947
1559.1800, -47.992
1559.1900, -47.987
1559.2000, -48.060
1559.2100, -48.031
1559.2200, -48.011
1559.2300, -48.114
1559.2400, -48.121
1559.2500, -48.146
1559.2600, -48.111
1559.2700, -48.113
1559.2800, -48.173
1559.2900, -48.247
1559.3000, -48.305
1559.3100, -48.242
1559.3200, -48.330
1559.3300, -48.329
1559.3400, -48.311
1559.3500, -48.359
1559.3600, -48.300
1559.3700, -48.379
1559.3800, -48.355
1559.3900, -48.410
1559.4000, -48.426
1559.4100, -48.426
1559.4200, -48.415
1559.4300, -48.452
1559.4400, -48.458
1559.4500, -48.536
1559.4600, -48.448
1559.4700, -48.468
1559.4800, -48.569
1559.4900, -48.550
1559.5000, -48.535
1559.5100, -48.647
1559.5200, -48.569
1559.5300, -48.697
1559.5400, -48.619
1559.5500, -48.617
1559.5600, -48.709
1559.5700, -48.624
1559.5800, -48.721
1559.5900, -48.744
1559.6000, -48.681
1559.6100, -48.704
1559.6200, -48.705
1559.6300, -48.687
1559.6400, -48.752
1559.6500, -48.704
1559.6600, -48.676
1559.6700, -48.699
1559.6800, -48.736
1559.6900, -48.749
1559.7000, -48.810
1559.7100, -48.783
1559.7200, -48.785
1559.7300, -48.766
1559.7400, -48.840
1559.7500, -48.857
1559.7600, -48.922
1559.7700, -48.808
1559.7800, -48.823
1559.7900, -48.865
1559.8000, -48.826
1559.8100, -48.863
1559.8200, -48.897
1559.8300, -48.817
1559.8400, -48.794
1559.8500, -48.854
1559.8600, -48.831
1559.8700, -48.801
1559.8800, -48.803
1559.8900, -48.907
1559.9000, -48.870
1559.9100, -48.904
1559.9200, -48.971
1559.9300, -48.948
1559.9400, -48.959
1559.9500, -48.939
1559.9600, -48.904
1559.9700, -48.955
1559.9800, -49.020
1559.9900, -48.902
1560.0000, -48.938
1560.0100, -48.980
1560.0200, -48.944
1560.0300, -48.955
1560.0400, -49.029
1560.0500, -48.977
1560.0600, -49.000
1560.0700, -48.949
1560.0800, -48.934
1560.0900, -49.027
1560.1000, -48.979
1560.1100, -48.938
1560.1200, -48.954
1560.1300, -49.088
1560.1400, -49.079
1560.1500, -49.025
1560.1600, -48.951
1560.1700, -49.001
1560.1800, -49.067
1560.1900, -49.003
1560.2000, -49.012
1560.2100, -49.048
1560.2200, -49.068
1560.2300, -49.145
1560.2400, -49.154
1560.2500, -49.143
1560.2600, -49.012
1560.2700, -49.017
1560.2800, -49.044
1560.2900, -49.051
1560.3000, -49.075
1560.3100, -49.224
1560.3200, -49.140
1560.3300, -49.131
1560.3400, -49.058
1560.3500, -49.222
1560.3600, -49.224
1560.3700, -49.151
1560.3800, -49.063
1560.3900, -49.080
1560.4000, -49.102
1560.4100, -49.280
1560.4200, -49.251
1560.4300, -49.197
1560.4400, -49.279
1560.4500, -49.276
1560.4600, -49.225
1560.4700, -49.249
1560.4800, -49.157
1560.4900, -49.335
1560.5000, -49.332
1560.5100, -49.201
1560.5200, -49.189
1560.5300, -49.150
1560.5400, -49.257
1560.5500, -49.262
1560.5600, -49.370
1560.5700, -49.327
1560.5800, -49.317
1560.5900, -49.319
1560.6000, -49.292
1560.6100, -49.255
1560.6200, -49.301
1560.6300, -49.308
1560.6400, -49.335
1560.6500, -49.405
1560.6600, -49.335
1560.6700, -49.310
1560.6800, -49.402
1560.6900, -49.432
1560.7000, -49.438
1560.7100, -49.521
1560.7200, -49.457
1560.7300, -49.458
1560.7400, -49.565
1560.7500, -49.496
1560.7600, -49.537
1560.7700, -49.517
1560.7800, -49.454
1560.7900, -49.447
1560.8000, -49.570
1560.8100, -49.594
1560.8200, -49.505
1560.8300, -49.638
1560.8400, -49.534
1560.8500, -49.502
1560.8600, -49.571
1560.8700, -49.666
1560.8800, -49.608
1560.8900, -49.613
1560.9000, -49.653
1560.9100, -49.689
1560.9200, -49.680
1560.9300, -49.647
1560.9400, -49.733
1560.9500, -49.673
1560.9600, -49.674
1560.9700, -49.697
1560.9800, -49.809
1560.9900, -49.822
1561.0000, -49.788
1561.0100, -49.850
1561.0200, -49.815
1561.0300, -49.838
1561.0400, -49.892
1561.0500, -49.772
1561.0600, -49.961
1561.0700, -49.868
1561.0800, -49.882
1561.0900, -49.841
1561.1000, -49.839
1561.1100, -49.876
1561.1200, -50.019
1561.1300, -50.003
1561.1400, -49.937
1561.1500, -49.997
1561.1600, -50.095
1561.1700, -50.011
1561.1800, -49.984
1561.1900, -50.060
1561.2000, -50.153
1561.2100, -50.117
1561.2200, -50.204
1561.2300, -50.162
1561.2400, -50.214
1561.2500, -50.108
1561.2600, -50.221
1561.2700, -50.305
1561.2800, -50.145
1561.2900, -50.183
1561.3000, -50.169
1561.3100, -50.456
1561.3200, -50.252
1561.3300, -50.335
1561.3400, -50.304
1561.3500, -50.279
1561.3600, -50.389
1561.3700, -50.362
1561.3800, -50.289
1561.3900, -50.472
1561.4000, -50.286
1561.4100, -50.431
1561.4200, -50.410
1561.4300, -50.540
1561.4400, -50.474
1561.4500, -50.597
1561.4600, -50.685
1561.4700, -50.617
1561.4800, -50.619
1561.4900, -50.620
1561.5000, -50.598
1561.5100, -50.621
1561.5200, -50.597
1561.5300, -50.720
1561.5400, -50.781
1561.5500, -50.814
1561.5600, -50.837
1561.5700, -50.741
1561.5800, -50.728
1561.5900, -50.788
1561.6000, -50.827
1561.6100, -51.009
1561.6200, -51.071
1561.6300, -51.084
1561.6400, -51.003
1561.6500, -51.084
1561.6600, -51.018
1561.6700, -51.187
1561.6800, -51.176
1561.6900, -51.092
1561.7000, -51.271
1561.7100, -51.066
1561.7200, -51.173
1561.7300, -51.292
1561.7400, -51.283
1561.7500, -51.298
1561.7600, -51.256
1561.7700, -51.310
1561.7800, -51.384
1561.7900, -51.443
1561.8000, -51.565
1561.8100, -51.382
1561.8200, -51.433
1561.8300, -51.409
1561.8400, -51.451
1561.8500, -51.573
1561.8600, -51.680
1561.8700, -51.596
1561.8800, -51.688
1561.8900, -51.657
1561.9000, -51.668
1561.9100, -51.561
1561.9200, -51.845
1561.9300, -51.806
1561.9400, -52.058
1561.9500, -52.008
1561.9600, -51.822
1561.9700, -51.882
1561.9800, -51.940
1561.9900, -51.982
1562.0000, -52.080
1562.0100, -52.065
1562.0200, -52.102
1562.0300, -52.291
1562.0400, -52.298
1562.0500, -52.390
1562.0600, -52.256
1562.0700, -52.357
1562.0800, -52.338
1562.0900, -52.409
1562.1000, -52.614
1562.1100, -52.466
1562.1200, -52.459
1562.1300, -52.379
1562.1400, -52.454
1562.1500, -52.540
1562.1600, -52.915
1562.1700, -52.733
1562.1800, -52.562
1562.1900, -52.708
1562.2000, -52.392
1562.2100, -52.601
1562.2200, -52.664
1562.2300, -52.893
1562.2400, -52.800
1562.2500, -52.862
1562.2600, -53.012
1562.2700, -53.040
1562.2800, -53.129
1562.2900, -53.037
1562.3000, -53.322
1562.3100, -53.148
1562.3200, -53.282
1562.3300, -53.190
1562.3400, -53.089
1562.3500, -53.345
1562.3600, -53.585
1562.3700, -53.456
1562.3800, -53.487
1562.3900, -53.556
1562.4000, -53.732
1562.4100, -53.896
1562.4200, -53.774
1562.4300, -53.663
1562.4400, -53.960
1562.4500, -53.906
1562.4600, -53.778
1562.4700, -53.779
1562.4800, -54.267
1562.4900, -54.145
1562.5000, -53.936
1562.5100, -54.221
1562.5200, -54.224
1562.5300, -54.016
1562.5400, -54.557
1562.5500, -54.253
1562.5600, -54.097
1562.5700, -54.154
1562.5800, -54.431
1562.5900, -54.488
1562.6000, -54.390
1562.6100, -54.677
1562.6200, -54.511
1562.6300, -54.807
1562.6400, -55.067
1562.6500, -54.880
1562.6600, -54.963
1562.6700, -54.959
1562.6800, -54.959
1562.6900, -54.906
1562.7000, -54.837
1562.7100, -54.937
1562.7200, -55.401
1562.7300, -55.741
1562.7400, -55.187
1562.7500, -55.290
1562.7600, -55.585
1562.7700, -55.206
1562.7800, -55.881
1562.7900, -55.525
1562.8000, -56.038
1562.8100, -55.674
1562.8200, -55.604
1562.8300, -55.787
1562.8400, -55.809
1562.8500, -56.071
1562.8600, -56.363
1562.8700, -56.151
1562.8800, -56.254
1562.8900, -55.864
1562.9000, -56.274
1562.9100, -56.504
1562.9200, -56.232
1562.9300, -56.437
1562.9400, -56.178
1562.9500, -56.186
1562.9600, -56.366
1562.9700, -56.879
1562.9800, -56.784
1562.9900, -57.205
1563.0000, -57.310
1563.0100, -56.886
1563.0200, -56.383
1563.0300, -57.193
1563.0400, -57.445
1563.0500, -57.744
1563.0600, -57.277
1563.0700, -57.207
1563.0800, -57.288
1563.0900, -58.264
1563.1000, -57.973
1563.1100, -57.846
1563.1200, -57.106
1563.1300, -57.528
1563.1400, -57.656
1563.1500, -58.131
1563.1600, -57.791
1563.1700, -58.553
1563.1800, -57.750
1563.1900, -57.715
1563.2000, -57.864
1563.2100, -57.967
1563.2200, -57.836
1563.2300, -57.825
1563.2400, -58.321
1563.2500, -58.442
1563.2600, -58.792
1563.2700, -57.703
1563.2800, -58.285
1563.2900, -58.423
1563.3000, -58.974
1563.3100, -58.853
1563.3200, -58.287
1563.3300, -58.985
1563.3400, -59.426
1563.3500, -59.436
1563.3600, -59.575
1563.3700, -59.486
1563.3800, -60.422
1563.3900, -59.146
1563.4000, -59.456
1563.4100, -59.588
1563.4200, -59.065
1563.4300, -58.554
1563.4400, -59.755
1563.4500, -59.920
1563.4600, -59.942
1563.4700, -61.155
1563.4800, -60.049
1563.4900, -60.463
1563.5000, -60.132
1563.5100, -59.594
1563.5200, -61.733
1563.5300, -60.040
1563.5400, -60.759
1563.5500, -60.813
1563.5600, -60.933
1563.5700, -61.275
1563.5800, -59.857
1563.5900, -60.096
1563.6000, -60.613
1563.6100, -61.437
1563.6200, -64.287
1563.6300, -61.070
1563.6400, -60.606
1563.6500, -60.279
1563.6600, -60.297
1563.6700, -60.228
1563.6800, -61.567
1563.6900, -60.945
1563.7000, -61.668
1563.7100, -62.072
1563.7200, -61.128
1563.7300, -63.048
1563.7400, -62.893
1563.7500, -63.671
1563.7600, -63.579
1563.7700, -63.358
1563.7800, -64.494
1563.7900, -62.587
1563.8000, -63.558
1563.8100, -63.959
1563.8200, -67.035
1563.8300, -63.381
1563.8400, -62.666
1563.8500, -64.291
1563.8600, -62.975
1563.8700, -64.389
1563.8800, -64.038
1563.8900, -65.790
1563.9000, -62.760
1563.9100, -63.024
1563.9200, -66.222
1563.9300, -63.067
1563.9400, -63.505
1563.9500, -64.735
1563.9600, -63.555
1563.9700, -65.682
1563.9800, -64.526
1563.9900, -63.595
1564.0000, -64.456
1564.0100, -68.370
1564.0200, -64.423
1564.0300,-210.000
1564.0400, -66.097
1564.0500, -65.666
1564.0600, -65.094
1564.0700, -63.151
1564.0800, -65.542
1564.0900, -68.125
1564.1000, -67.575
1564.1100, -70.983
1564.1200, -75.197
1564.1300, -65.762
1564.1400, -63.413
1564.1500, -67.912
1564.1600, -66.240
1564.1700, -63.780
1564.1800, -64.184
1564.1900, -65.963
1564.2000, -65.858
1564.2100, -77.286
1564.2200, -65.209
1564.2300, -65.998
1564.2400, -67.284
1564.2500, -62.844
1564.2600, -69.902
1564.2700,-210.000
1564.2800, -65.035
1564.2900, -66.203
1564.3000, -70.348
1564.3100, -65.993
1564.3200, -66.183
1564.3300, -65.693
1564.3400, -65.303
1564.3500, -70.596
1564.3600, -66.070
1564.3700, -65.845
1564.3800, -65.635
1564.3900, -70.251
1564.4000, -64.979
1564.4100, -74.325
1564.4200, -65.101
1564.4300, -68.149
1564.4400, -71.999
1564.4500, -72.663
1564.4600, -63.757
1564.4700, -64.913
1564.4800, -66.729
1564.4900, -63.934
1564.5000, -67.849
1564.5100, -70.561
1564.5200, -65.623
1564.5300, -65.236
1564.5400, -69.693
1564.5500, -72.001
1564.5600, -65.239
1564.5700, -69.205
1564.5800, -70.482
1564.5900, -73.235
1564.6000, -66.962
1564.6100, -69.613
1564.6200, -74.170
1564.6300, -63.568
1564.6400, -71.340
1564.6500, -65.984
1564.6600, -72.435
1564.6700, -68.694
1564.6800, -65.935
1564.6900, -65.573
1564.7000, -68.607
1564.7100, -75.960
1564.7200, -65.782
1564.7300, -72.332
1564.7400, -70.903
1564.7500, -66.333
1564.7600, -74.212
1564.7700, -75.834
1564.7800,-210.000
1564.7900,-210.000
1564.8000, -66.148
1564.8100, -73.586
1564.8200, -65.891
1564.8300,-210.000
1564.8400,-210.000
1564.8500, -67.889
1564.8600,-210.000
1564.8700,-210.000
1564.8800,-210.000
1564.8900, -69.685
1564.9000, -68.426
1564.9100, -64.901
1564.9200, -65.948
1564.9300, -68.417
1564.9400, -66.583
1564.9500, -71.199
1564.9600, -68.354
1564.9700, -67.491
1564.9800,-210.000
1564.9900, -65.592
1565.0000, -66.240
1565.0100,-210.000
1565.0200, -68.005
1565.0300, -63.173
1565.0400, -64.264
1565.0500, -67.910
1565.0600, -67.386
1565.0700, -67.395
1565.0800, -66.949
1565.0900, -65.875
1565.1000, -64.730
1565.1100, -67.918
1565.1200,-210.000
1565.1300, -67.148
1565.1400, -67.130
1565.1500, -82.016
1565.1600, -63.819
1565.1700, -67.506
1565.1800, -66.710
1565.1900, -64.396
1565.2000, -68.939
1565.2100,-210.000
1565.2200, -68.056
1565.2300, -65.715
1565.2400, -65.570
1565.2500, -69.361
1565.2600, -68.855
1565.2700, -70.797
1565.2800, -70.847
1565.2900, -67.377
1565.3000, -69.167
1565.3100, -67.452
1565.3200, -68.743
1565.3300, -70.689
1565.3400, -66.862
1565.3500,-210.000
1565.3600, -68.400
1565.3700, -65.278
1565.3800, -63.803
1565.3900, -69.903
1565.4000, -67.707
1565.4100, -69.989
1565.4200, -63.354
1565.4300, -63.091
1565.4400, -67.488
1565.4500, -64.876
1565.4600, -71.735
1565.4700, -66.877
1565.4800, -65.123
1565.4900, -64.293
1565.5000, -69.811
1565.5100, -66.424
1565.5200, -69.333
1565.5300, -67.176
1565.5400, -66.699
1565.5500, -64.808
1565.5600, -65.830
1565.5700, -64.620
1565.5800, -65.989
1565.5900, -84.838
1565.6000,-210.000
1565.6100, -67.946
1565.6200, -77.317
1565.6300, -69.349
1565.6400, -70.057
1565.6500,-210.000
1565.6600, -68.488
1565.6700, -67.143
1565.6800, -67.779
1565.6900,-210.000
1565.7000, -68.567
1565.7100,-210.000
1565.7200, -68.172
1565.7300, -74.153
1565.7400, -66.097
1565.7500, -67.367
1565.7600, -64.837
1565.7700, -64.648
1565.7800, -67.335
1565.7900, -66.444
1565.8000, -66.640
1565.8100, -73.763
1565.8200, -65.892
1565.8300, -75.642
1565.8400, -69.886
1565.8500, -66.344
1565.8600, -64.036
1565.8700, -69.209
1565.8800, -69.243
1565.8900,-210.000
1565.9000, -68.429
1565.9100, -76.640
1565.9200, -62.965
1565.9300, -63.419
1565.9400, -65.473
1565.9500, -71.050
1565.9600, -65.500
1565.9700, -66.976
1565.9800, -71.470
1565.9900, -66.256
1566.0000, -67.976
1566.0100, -65.858
1566.0200, -65.153
1566.0300, -63.181
1566.0400, -71.058
1566.0500, -65.690
1566.0600, -67.891
1566.0700, -69.766
1566.0800, -66.330
1566.0900, -76.409
1566.1000, -70.962
1566.1100, -68.762
1566.1200, -63.929
1566.1300, -68.051
1566.1400, -66.093
1566.1500,-210.000
1566.1600, -68.340
1566.1700, -64.201
1566.1800, -64.951
1566.1900, -68.900
1566.2000, -69.911
1566.2100, -68.018
1566.2200, -68.785
1566.2300, -66.335
1566.2400, -65.413
1566.2500, -67.347
1566.2600,-210.000
1566.2700, -73.937
1566.2800, -66.851
1566.2900, -65.215
1566.3000, -69.369
1566.3100, -73.713
1566.3200,-210.000
1566.3300, -72.462
1566.3400, -68.713
1566.3500, -67.415
1566.3600, -67.761
1566.3700, -62.845
1566.3800, -69.038
1566.3900, -76.255
1566.4000, -67.216
1566.4100,-210.000
1566.4200, -68.378
1566.4300, -69.511
1566.4400, -63.926
1566.4500, -67.526
1566.4600,-210.000
1566.4700, -69.313
1566.4800, -69.893
1566.4900,-210.000
1566.5000, -67.706
1566.5100, -67.202
1566.5200, -66.121
1566.5300, -66.245
1566.5400,-210.000
1566.5500,-210.000
1566.5600, -66.478
1566.5700,-210.000
1566.5800, -66.044
1566.5900, -65.294
1566.6000, -66.204
1566.6100,-210.000
1566.6200, -68.979
1566.6300, -71.715
1566.6400, -69.770
1566.6500, -65.029
1566.6600, -74.562
1566.6700, -64.473
1566.6800, -75.520
1566.6900, -69.714
1566.7000,-210.000
1566.7100, -68.312
1566.7200, -66.603
1566.7300,-210.000
1566.7400,-210.000
1566.7500, -73.669
1566.7600,-210.000
1566.7700, -66.937
1566.7800, -68.618
1566.7900, -70.081
1566.8000, -68.478
1566.8100,-210.000
1566.8200,-210.000
1566.8300,-210.000
1566.8400, -71.395
1566.8500, -70.787
1566.8600, -70.327
1566.8700, -64.999
1566.8800,-210.000
1566.8900,-210.000
1566.9000, -77.595
1566.9100, -66.954
1566.9200, -68.689
1566.9300, -73.877
1566.9400, -65.046
1566.9500, -66.716
1566.9600, -67.100
1566.9700, -67.486
1566.9800, -64.978
1566.9900, -72.346
1567.0000,-210.000
1567.0100,-210.000
1567.0200,-210.000
1567.0300,-210.000
1567.0400, -65.707
1567.0500,-210.000
1567.0600,-210.000
1567.0700, -75.578
1567.0800, -66.090
1567.0900,-210.000
1567.1000,-210.000
1567.1100,-210.000
1567.1200, -69.206
1567.1300,-210.000
1567.1400, -68.441
1567.1500, -66.149
1567.1600, -70.201
1567.1700, -69.222
1567.1800, -68.924
1567.1900, -72.201
1567.2000,-210.000
1567.2100,-210.000
1567.2200,-210.000
1567.2300,-210.000
1567.2400,-210.000
1567.2500, -66.732
1567.2600, -68.581
1567.2700,-210.000
1567.2800,-210.000
1567.2900,-210.000
1567.3000, -73.389
1567.3100, -70.407
1567.3200, -68.683
1567.3300, -66.971
1567.3400, -66.546
1567.3500, -62.986
1567.3600, -71.970
1567.3700,-210.000
1567.3800, -74.240
1567.3900,-210.000
1567.4000,-210.000
1567.4100, -69.979
1567.4200,-210.000
1567.4300, -68.468
1567.4400, -67.576
1567.4500, -70.835
1567.4600,-210.000
1567.4700,-210.000
1567.4800, -66.616
1567.4900, -66.132
1567.5000, -73.763
1567.5100, -70.223
1567.5200,-210.000
1567.5300,-210.000
1567.5400, -74.297
1567.5500,-210.000
1567.5600, -81.141
1567.5700, -73.370
1567.5800,-210.000
1567.5900, -89.747
1567.6000, -76.849
1567.6100, -76.843
1567.6200, -70.390
1567.6300, -70.527
1567.6400,-210.000
1567.6500, -68.762
1567.6600, -68.567
1567.6700, -68.486
1567.6800, -80.027
1567.6900, -66.835
1567.7000,-210.000
1567.7100,-210.000
1567.7200, -66.056
1567.7300,-210.000
1567.7400, -70.854
1567.7500, -67.479
1567.7600,-210.000
1567.7700,-210.000
1567.7800,-210.000
1567.7900,-210.000
1567.8000,-210.000
1567.8100, -72.095
1567.8200,-210.000
1567.8300,-210.000
1567.8400, -66.251
1567.8500, -65.052
1567.8600, -70.680
1567.8700, -67.465
1567.8800, -69.637
1567.8900,-210.000
1567.9000,-210.000
1567.9100, -68.166
1567.9200, -73.274
1567.9300, -67.489
1567.9400,-210.000
1567.9500,-210.000
1567.9600,-210.000
1567.9700,-210.000
1567.9800, -73.234
1567.9900, -67.596
1568.0000,-210.000
1568.0100,-210.000
1568.0200,-210.000
1568.0300,-210.000
1568.0400, -67.501
1568.0500, -65.806
1568.0600,-210.000
1568.0700,-210.000
1568.0800,-210.000
1568.0900, -73.540
1568.1000, -66.278
1568.1100, -68.898
1568.1200, -75.412
1568.1300,-210.000
1568.1400,-210.000
1568.1500,-210.000
1568.1600,-210.000
1568.1700, -70.637
1568.1800, -71.742
1568.1900, -74.426
1568.2000,-210.000
1568.2100, -69.720
1568.2200,-210.000
1568.2300, -70.660
1568.2400, -67.730
1568.2500, -65.517
1568.2600, -68.512
1568.2700, -69.153
1568.2800,-210.000
1568.2900,-210.000
1568.3000, -68.026
1568.3100, -86.704
1568.3200,-210.000
1568.3300, -80.927
1568.3400, -93.925
1568.3500,-210.000
1568.3600, -67.030
1568.3700,-210.000
1568.3800, -69.743
1568.3900, -73.722
1568.4000, -74.527
1568.4100,-210.000
1568.4200, -70.792
1568.4300, -69.471
1568.4400, -69.676
1568.4500, -75.044
1568.4600,-210.000
1568.4700, -71.442
1568.4800, -65.946
1568.4900, -75.642
1568.5000,-210.000
1568.5100, -68.782
1568.5200, -69.802
1568.5300,-210.000
1568.5400, -69.137
1568.5500, -73.352
1568.5600,-210.000
1568.5700, -74.966
1568.5800,-210.000
1568.5900,-210.000
1568.6000, -75.629
1568.6100, -70.524
1568.6200, -67.417
1568.6300,-210.000
1568.6400,-210.000
1568.6500, -80.525
1568.6600, -75.323
1568.6700, -67.985
1568.6800, -64.920
1568.6900,-210.000
1568.7000, -77.204
1568.7100,-210.000
1568.7200, -70.046
1568.7300,-210.000
1568.7400,-210.000
1568.7500,-210.000
1568.7600, -72.471
1568.7700, -72.611
1568.7800, -73.344
1568.7900, -65.646
1568.8000, -69.248
1568.8100,-210.000
1568.8200, -66.615
1568.8300,-210.000
1568.8400, -69.335
1568.8500,-210.000
1568.8600,-210.000
1568.8700, -88.027
1568.8800, -67.324
1568.8900, -70.457
1568.9000, -70.519
1568.9100,-210.000
1568.9200, -73.229
1568.9300,-210.000
1568.9400, -67.639
1568.9500, -65.061
1568.9600, -71.816
1568.9700, -67.769
1568.9800,-210.000
1568.9900,-210.000
1569.0000, -67.525
1569.0100, -68.646
1569.0200,-210.000
1569.0300, -73.117
1569.0400, -78.845
1569.0500, -70.383
1569.0600,-210.000
1569.0700, -68.080
1569.0800,-210.000
1569.0900,-210.000
1569.1000,-210.000
1569.1100,-210.000
1569.1200,-210.000
1569.1300, -64.223
1569.1400,-210.000
1569.1500, -75.564
1569.1600,-210.000
1569.1700, -75.655
1569.1800,-210.000
1569.1900, -78.060
1569.2000,-210.000
1569.2100,-210.000
1569.2200,-210.000
1569.2300,-210.000
1569.2400, -66.965
1569.2500, -72.661
1569.2600,-210.000
1569.2700, -68.896
1569.2800,-210.000
1569.2900, -76.896
1569.3000, -66.247
1569.3100, -66.964
1569.3200,-210.000
1569.3300,-210.000
1569.3400,-210.000
1569.3500, -67.824
1569.3600, -70.028
1569.3700, -72.552
1569.3800,-210.000
1569.3900,-210.000
1569.4000,-210.000
1569.4100,-210.000
1569.4200, -76.565
1569.4300, -68.193
1569.4400, -70.511
1569.4500,-210.000
1569.4600,-210.000
1569.4700,-210.000
1569.4800, -66.563
1569.4900,-210.000
1569.5000, -72.831
1569.5100, -70.907
1569.5200, -76.127
1569.5300, -70.435
1569.5400, -65.066
1569.5500,-210.000
1569.5600, -71.659
1569.5700, -66.677
1569.5800,-210.000
1569.5900, -67.471
1569.6000,-210.000
1569.6100,-210.000
1569.6200, -73.001
1569.6300, -72.310
1569.6400,-210.000
1569.6500,-210.000
1569.6600, -69.298
1569.6700, -74.970
1569.6800,-210.000
1569.6900,-210.000
1569.7000,-210.000
1569.7100, -76.389
1569.7200,-210.000
1569.7300, -68.608
1569.7400,-210.000
1569.7500, -70.090
1569.7600,-210.000
1569.7700,-210.000
1569.7800,-210.000
1569.7900, -69.555
1569.8000, -69.665
1569.8100,-210.000
1569.8200, -70.517
1569.8300, -76.691
1569.8400, -80.758
1569.8500, -73.699
1569.8600, -72.508
1569.8700, -69.386
1569.8800, -69.430
1569.8900,-210.000
1569.9000, -67.385
1569.9100,-210.000
1569.9200, -69.332
1569.9300, -80.120
1569.9400,-210.000
1569.9500, -69.072
1569.9600, -71.741
1569.9700, -74.569
1569.9800, -73.876
1569.9900,-210.000
1570.0000,-210.000
1570.0100, -76.221
1570.0200,-210.000
1570.0300, -65.934
1570.0400, -69.112
1570.0500,-210.000
1570.0600, -66.769
1570.0700, -69.472
1570.0800,-210.000
1570.0900,-210.000
1570.1000, -68.671
1570.1100, -67.694
1570.1200, -67.928
1570.1300, -71.447
1570.1400, -74.080
1570.1500,-210.000
1570.1600,-210.000
1570.1700, -68.624
1570.1800, -69.801
1570.1900, -68.313
1570.2000,-210.000
1570.2100, -70.092
1570.2200,-210.000
1570.2300, -68.884
1570.2400, -66.708
1570.2500, -64.019
1570.2600, -84.585
1570.2700,-210.000
1570.2800,-210.000
1570.2900,-210.000
1570.3000,-210.000
1570.3100, -68.599
1570.3200,-210.000
1570.3300,-210.000
1570.3400, -73.555
1570.3500, -67.655
1570.3600,-210.000
1570.3700, -78.240
1570.3800, -70.060
1570.3900, -67.096
1570.4000, -70.793
1570.4100,-210.000
1570.4200, -71.299
1570.4300, -68.451
1570.4400, -77.972
1570.4500,-210.000
1570.4600,-210.000
1570.4700,-210.000
1570.4800,-210.000
1570.4900,-210.000
1570.5000, -66.838
1570.5100, -70.714
1570.5200,-210.000
1570.5300,-210.000
1570.5400, -67.400
1570.5500,-210.000
1570.5600,-210.000
1570.5700,-210.000
1570.5800,-210.000
1570.5900, -66.807
1570.6000, -75.240
1570.6100,-210.000
1570.6200, -68.425
1570.6300, -67.982
1570.6400, -73.953
1570.6500,-210.000
1570.6600, -66.882
1570.6700,-210.000
1570.6800, -67.715
1570.6900, -72.029
1570.7000, -74.696
1570.7100, -68.053
1570.7200, -70.931
1570.7300,-210.000
1570.7400,-210.000
1570.7500, -73.337
1570.7600,-210.000
1570.7700,-210.000
1570.7800, -66.908
1570.7900,-210.000
1570.8000, -69.742
1570.8100, -66.150
1570.8200, -81.250
1570.8300,-210.000
1570.8400,-210.000
1570.8500, -71.595
1570.8600, -70.351
1570.8700, -70.501
1570.8800, -77.891
1570.8900,-210.000
1570.9000,-210.000
1570.9100,-210.000
1570.9200,-210.000
1570.9300, -68.709
1570.9400, -76.246
1570.9500,-210.000
1570.9600,-210.000
1570.9700, -69.032
1570.9800,-210.000
1570.9900,-210.000
1571.0000,-210.000
1571.0100,-210.000
1571.0200,-210.000
1571.0300,-210.000
1571.0400, -68.229
1571.0500,-210.000
1571.0600, -76.095
1571.0700,-210.000
1571.0800, -71.458
1571.0900,-210.000
1571.1000, -73.593
1571.1100, -83.966
1571.1200,-210.000
1571.1300,-210.000
1571.1400, -70.682
1571.1500, -64.265
1571.1600, -68.299
1571.1700, -67.457
1571.1800, -72.742
1571.1900,-210.000
1571.2000,-210.000
1571.2100,-210.000
1571.2200,-210.000
1571.2300, -75.028
1571.2400, -68.400
1571.2500, -87.354
1571.2600,-210.000
1571.2700,-210.000
1571.2800, -69.336
1571.2900,-210.000
1571.3000,-210.000
1571.3100,-210.000
1571.3200,-210.000
1571.3300, -67.614
1571.3400, -71.977
1571.3500,-210.000
1571.3600,-210.000
1571.3700,-210.000
1571.3800,-210.000
1571.3900, -79.737
1571.4000, -66.473
1571.4100,-210.000
1571.4200,-210.000
1571.4300,-210.000
1571.4400, -70.068
1571.4500,-210.000
1571.4600, -72.973
1571.4700, -69.948
1571.4800, -70.128
1571.4900,-210.000
1571.5000, -70.107
1571.5100, -73.793
1571.5200, -77.866
1571.5300, -71.378
1571.5400,-210.000
1571.5500,-210.000
1571.5600,-210.000
1571.5700, -67.311
1571.5800, -73.920
1571.5900, -66.568
1571.6000,-210.000
1571.6100,-210.000
1571.6200,-210.000
1571.6300,-210.000
1571.6400,-210.000
1571.6500, -73.632
1571.6600,-210.000
1571.6700, -76.023
1571.6800, -71.407
1571.6900,-210.000
1571.7000,-210.000
1571.7100,-210.000
1571.7200,-210.000
1571.7300,-210.000
1571.7400,-210.000
1571.7500, -68.507
1571.7600, -65.536
1571.7700, -66.706
1571.7800, -68.647
1571.7900, -71.838
1571.8000,-210.000
1571.8100,-210.000
1571.8200, -78.645
1571.8300,-210.000
1571.8400, -72.644
1571.8500, -65.412
1571.8600,-210.000
1571.8700,-210.000
1571.8800,-210.000
1571.8900, -78.489
1571.9000, -78.549
1571.9100,-210.000
1571.9200,-210.000
1571.9300, -69.521
1571.9400, -74.664
1571.9500,-210.000
1571.9600,-210.000
1571.9700,-210.000
1571.9800,-210.000
1571.9900,-210.000
1572.0000,-210.000
1572.0100, -68.232
1572.0200, -73.616
1572.0300,-210.000
1572.0400, -71.262
1572.0500, -66.214
1572.0600, -67.571
1572.0700, -70.617
1572.0800, -67.216
1572.0900, -77.314
1572.1000,-210.000
1572.1100, -73.780
1572.1200, -67.958
1572.1300,-210.000
1572.1400, -94.837
1572.1500,-210.000
1572.1600,-210.000
1572.1700, -69.012
1572.1800, -68.090
1572.1900, -74.334
1572.2000, -68.160
1572.2100, -75.806
1572.2200, -73.342
1572.2300, -67.428
1572.2400,-210.000
1572.2500,-210.000
1572.2600, -75.357
1572.2700,-210.000
1572.2800, -68.555
1572.2900, -73.362
1572.3000, -66.033
1572.3100, -70.338
1572.3200, -69.146
1572.3300,-210.000
1572.3400,-210.000
1572.3500,-210.000
1572.3600,-210.000
1572.3700,-210.000
1572.3800,-210.000
1572.3900,-210.000
1572.4000,-210.000
1572.4100, -67.908
1572.4200,-210.000
1572.4300,-210.000
1572.4400, -68.272
1572.4500,-210.000
1572.4600,-210.000
1572.4700,-210.000
1572.4800,-210.000
1572.4900,-210.000
1572.5000, -63.296
1572.5100, -75.413
1572.5200, -66.846
1572.5300,-210.000
1572.5400,-210.000
1572.5500,-210.000
1572.5600, -67.530
1572.5700, -71.797
1572.5800, -74.739
1572.5900,-210.000
1572.6000, -69.235
1572.6100, -74.231
1572.6200,-210.000
1572.6300,-210.000
1572.6400, -67.311
1572.6500, -69.576
1572.6600, -70.606
1572.6700, -69.156
1572.6800, -69.259
1572.6900, -73.690
1572.7000, -66.605
1572.7100, -74.780
1572.7200, -70.400
1572.7300, -71.163
1572.7400,-210.000
1572.7500,-210.000
1572.7600,-210.000
1572.7700,-210.000
1572.7800, -69.740
1572.7900, -68.465
1572.8000,-210.000
1572.8100,-210.000
1572.8200,-210.000
1572.8300,-210.000
1572.8400, -76.157
1572.8500, -73.084
1572.8600,-210.000
1572.8700, -72.019
1572.8800,-210.000
1572.8900, -83.077
1572.9000, -69.609
1572.9100,-210.000
1572.9200,-210.000
1572.9300, -71.468
1572.9400, -67.748
1572.9500, -69.572
1572.9600,-210.000
1572.9700, -66.146
1572.9800, -77.893
1572.9900,-210.000
1573.0000, -73.656
1573.0100,-210.000
1573.0200, -71.531
1573.0300, -67.433
1573.0400,-210.000
1573.0500,-210.000
1573.0600, -66.612
1573.0700,-210.000
1573.0800, -70.564
1573.0900, -66.568
1573.1000,-210.000
1573.1100, -70.146
1573.1200, -77.767
1573.1300, -67.358
1573.1400, -69.848
1573.1500,-210.000
1573.1600,-210.000
1573.1700,-210.000
1573.1800,-210.000
1573.1900,-210.000
1573.2000,-210.000
1573.2100,-210.000
1573.2200,-210.000
1573.2300,-210.000
1573.2400, -72.051
1573.2500,-210.000
1573.2600,-210.000
1573.2700, -63.715
1573.2800, -73.363
1573.2900,-210.000
1573.3000,-210.000
1573.3100,-210.000
1573.3200, -68.869
1573.3300,-210.000
1573.3400,-210.000
1573.3500, -77.207
1573.3600,-210.000
1573.3700, -71.218
1573.3800, -68.492
1573.3900,-210.000
1573.4000,-210.000
1573.4100, -71.227
1573.4200,-210.000
1573.4300, -66.766
1573.4400, -70.493
1573.4500,-210.000
1573.4600, -72.509
1573.4700, -70.271
1573.4800,-210.000
1573.4900,-210.000
1573.5000, -73.262
1573.5100,-210.000
1573.5200, -78.851
1573.5300, -76.201
1573.5400,-210.000
1573.5500,-210.000
1573.5600, -78.313
1573.5700,-210.000
1573.5800, -69.082
1573.5900,-210.000
1573.6000, -71.703
1573.6100,-210.000
1573.6200, -68.378
1573.6300, -69.336
1573.6400, -68.944
1573.6500, -66.262
1573.6600, -69.812
1573.6700, -73.617
1573.6800, -69.058
1573.6900,-210.000
1573.7000,-210.000
1573.7100, -70.282
1573.7200, -64.287
1573.7300, -69.919
1573.7400, -69.073
1573.7500,-210.000
1573.7600,-210.000
1573.7700, -64.341
1573.7800, -67.323
1573.7900,-210.000
1573.8000, -64.494
1573.8100, -71.555
1573.8200,-210.000
1573.8300,-210.000
1573.8400, -70.131
1573.8500,-210.000
1573.8600, -69.565
1573.8700,-210.000
1573.8800,-210.000
1573.8900, -68.224
1573.9000, -72.576
1573.9100,-210.000
1573.9200, -67.344
1573.9300,-210.000
1573.9400,-210.000
1573.9500,-210.000
1573.9600, -73.175
1573.9700,-210.000
1573.9800,-210.000
1573.9900, -67.420
1574.0000, -70.869
1574.0100, -72.093
1574.0200,-210.000
1574.0300,-210.000
1574.0400, -70.603
1574.0500, -71.177
1574.0600,-210.000
1574.0700,-210.000
1574.0800,-210.000
1574.0900, -66.235
1574.1000,-210.000
1574.1100, -70.913
1574.1200,-210.000
1574.1300, -73.096
1574.1400,-210.000
1574.1500,-210.000
1574.1600, -70.609
1574.1700, -72.817
1574.1800,-210.000
1574.1900, -67.301
1574.2000,-210.000
1574.2100, -64.541
1574.2200,-210.000
1574.2300,-210.000
1574.2400, -69.220
1574.2500,-210.000
1574.2600,-210.000
1574.2700, -69.833
1574.2800, -69.244
1574.2900, -72.621
1574.3000,-210.000
1574.3100, -69.392
1574.3200, -68.863
1574.3300, -66.796
1574.3400,-210.000
1574.3500, -72.873
1574.3600,-210.000
1574.3700, -72.842
1574.3800, -74.739
1574.3900,-210.000
1574.4000,-210.000
1574.4100, -65.760
1574.4200, -78.369
1574.4300,-210.000
1574.4400, -66.249
1574.4500, -71.386
1574.4600,-210.000
1574.4700,-210.000
1574.4800, -67.992
1574.4900,-210.000
1574.5000, -76.278
1574.5100,-210.000
1574.5200, -72.643
1574.5300, -80.328
1574.5400,-210.000
1574.5500,-210.000
1574.5600,-210.000
1574.5700, -76.260
1574.5800, -75.251
1574.5900,-210.000
1574.6000,-210.000
1574.6100, -70.893
1574.6200,-210.000
1574.6300,-210.000
1574.6400, -68.043
1574.6500,-210.000
1574.6600,-210.000
1574.6700, -68.597
1574.6800, -65.985
1574.6900, -67.831
1574.7000, -76.304
1574.7100,-210.000
1574.7200, -66.952
1574.7300, -78.715
1574.7400, -63.578
1574.7500,-210.000
1574.7600, -66.219
1574.7700,-210.000
1574.7800, -68.979
1574.7900, -78.094
1574.8000,-210.000
1574.8100, -69.710
1574.8200,-210.000
1574.8300,-210.000
1574.8400, -64.475
1574.8500,-210.000
1574.8600, -64.914
1574.8700, -66.414
1574.8800,-210.000
1574.8900, -80.421
1574.9000,-210.000
1574.9100, -69.115
1574.9200, -68.621
1574.9300, -73.259
1574.9400,-210.000
1574.9500, -74.124
1574.9600, -67.703
1574.9700, -68.350
1574.9800,-210.000
1574.9900, -68.984
1575.0000,-210.000
1575.0100, -68.858
1575.0200, -73.153
1575.0300, -66.455
1575.0400, -71.013
1575.0500, -77.765
1575.0600, -66.295
1575.0700, -65.980
1575.0800, -78.838
1575.0900, -74.121
1575.1000, -71.282
1575.1100, -68.328
1575.1200, -71.635
1575.1300, -67.952
1575.1400, -72.757
1575.1500,-210.000
1575.1600, -64.936
1575.1700,-210.000
1575.1800, -68.367
1575.1900, -70.857
1575.2000,-210.000
1575.2100,-210.000
1575.2200, -74.527
1575.2300, -81.446
1575.2400,-210.000
1575.2500,-210.000
